nmc=10
nz=2
kmax=157
run number  , frame , sample interval , measurements:
1  1 1.272188  24.737014 124.508023
1  2 1.272188  23.531784 130.339463
1  3 1.272188  20.628650 134.496006
1  4 1.272188  17.697931 139.866159
1  5 1.272188  13.196400 140.649797
1  6 1.272188  3.807353 142.151973
1  7 1.272188  1.391704 140.189767
1  8 1.272188  -4.343165 137.085240
1  9 1.272188  -7.408178 131.972038
1  10 1.272188  -7.634675 126.219862
1  11 1.272188  -6.080154 119.113872
1  12 1.272188  -2.364693 117.314786
1  13 1.272188  2.212170 113.349455
1  14 1.272188  7.121838 111.562284
1  15 1.272188  13.008664 109.703540
1  16 1.272188  16.725542 112.360160
1  17 1.272188  24.756775 115.525542
1  18 1.272188  27.452964 118.700028
1  19 1.272188  29.481545 124.401651
1  20 1.272188  28.333031 132.236246
1  21 1.272188  25.430615 135.409419
1  22 1.272188  17.500503 138.078777
1  23 1.272188  14.762817 140.398212
1  24 1.272188  9.847618 135.510884
1  25 1.272188  3.985030 131.009745
1  26 1.272188  3.101234 124.953096
1  27 1.272188  6.221539 120.329574
1  28 1.272188  11.656310 118.558161
1  29 1.272188  18.289747 120.958839
1  30 1.272188  17.882439 126.349723
1  31 1.272188  12.823696 131.566634
1  32 1.272188  8.143423 130.030675
1  33 1.272188  -0.324542 129.914795
1  34 1.272188  -5.292006 127.978665
1  35 1.272188  -11.427835 130.121759
1  36 1.272188  -16.685295 130.066759
1  37 1.272188  -22.223968 132.212073
1  38 1.272188  -27.511254 134.243338
1  39 1.272188  -34.208696 135.856860
1  40 1.272188  -41.567652 132.995401
1  41 1.272188  -45.181895 134.310382
1  42 1.272188  -53.802766 133.720919
1  43 1.272188  -60.564437 136.224281
1  44 1.272188  -65.454908 136.607549
1  45 1.272188  -71.163391 135.588082
1  46 1.272188  -78.088123 135.597343
1  47 1.272188  -83.800747 133.876853
1  48 1.272188  -90.302141 134.407654
1  49 1.272188  -94.852566 136.563576
1  50 1.272188  -102.520865 135.357712
1  51 1.272188  -107.412785 134.252787
1  52 1.272188  -113.120318 136.006929
1  53 1.272188  -118.991294 134.911426
1  54 1.272188  -127.169833 136.308539
1  55 1.272188  -131.489992 136.017639
1  56 1.272188  -138.591889 135.448711
1  57 1.272188  -143.474249 136.229736
1  58 1.272188  -150.978507 136.246095
1  59 1.272188  -158.660456 133.241136
1  60 1.272188  -164.575844 133.975932
1  61 1.272188  -168.067197 133.258984
1  62 1.272188  -175.973533 131.719411
1  63 1.272188  -182.400350 132.129733
1  64 1.272188  -184.621262 125.762590
1  65 1.272188  -182.898410 120.123148
1  66 1.272188  -180.427427 114.327532
1  67 1.272188  -175.047761 114.223535
1  68 1.272188  -168.369118 118.428804
1  69 1.272188  -164.683051 122.112457
1  70 1.272188  -164.899102 129.172657
1  71 1.272188  -171.196340 133.243943
1  72 1.272188  -176.518550 133.979487
1  73 1.272188  -180.456874 132.149614
1  74 1.272188  -184.113103 126.624643
1  75 1.272188  -183.910033 120.802174
1  76 1.272188  -177.089319 116.743826
1  77 1.272188  -176.171669 117.178617
1  78 1.272188  -169.622198 118.035076
1  79 1.272188  -166.348300 124.906700
1  80 1.272188  -168.027709 128.800140
1  81 1.272188  -173.008697 133.068458
1  82 1.272188  -179.466764 132.624174
1  83 1.272188  -180.678042 129.474976
1  84 1.272188  -184.314632 123.789147
1  85 1.272188  -182.856086 119.579452
1  86 1.272188  -180.077420 118.273934
1  87 1.272188  -175.504562 116.847529
1  88 1.272188  -170.285105 118.029051
1  89 1.272188  -170.419663 122.776308
1  90 1.272188  -168.600677 129.306348
1  91 1.272188  -173.779331 131.378491
1  92 1.272188  -178.470197 128.823543
1  93 1.272188  -182.337711 127.121443
1  94 1.272188  -183.020174 125.041093
1  95 1.272188  -185.816129 118.177913
1  96 1.272188  -183.894053 114.290883
1  97 1.272188  -183.020491 107.694517
1  98 1.272188  -181.698702 100.811117
1  99 1.272188  -182.482933 95.900702
1  100 1.272188  -182.841405 90.615733
1  101 1.272188  -182.098469 86.155238
1  102 1.272188  -182.819955 79.436057
1  103 1.272188  -182.317312 74.135683
1  104 1.272188  -180.878939 67.165475
1  105 1.272188  -182.617168 61.292568
1  106 1.272188  -180.573067 54.980001
1  107 1.272188  -181.535295 49.307437
1  108 1.272188  -179.314943 42.542089
1  109 1.272188  -181.233232 36.951204
1  110 1.272188  -182.095637 30.185832
1  111 1.272188  -182.982347 26.102310
1  112 1.272188  -183.053088 21.867073
1  113 1.272188  -183.257792 14.767584
1  114 1.272188  -182.108327 8.790564
1  115 1.272188  -185.160754 0.459557
1  116 1.272188  -182.803862 -4.354962
1  117 1.272188  -184.904095 -7.906241
1  118 1.272188  -185.211208 -14.810172
1  119 1.272188  -184.096979 -18.883900
1  120 1.272188  -186.334936 -24.001700
1  121 1.272188  -186.277978 -31.021413
1  122 1.272188  -185.463668 -34.181648
1  123 1.272188  -184.660532 -39.241573
1  124 1.272188  -185.107908 -43.815876
1  125 1.272188  -186.066746 -50.303511
1  126 1.272188  -183.432643 -55.709518
1  127 1.272188  -179.839859 -59.229666
1  128 1.272188  -173.890553 -60.010908
1  129 1.272188  -172.030812 -56.644520
1  130 1.272188  -166.496436 -51.435891
1  131 1.272188  -164.247378 -51.296930
1  132 1.272188  -160.540952 -42.784633
1  133 1.272188  -159.355842 -38.125975
1  134 1.272188  -160.649265 -32.900257
1  135 1.272188  -162.286384 -29.521576
1  136 1.272188  -167.626788 -27.857072
1  137 1.272188  -175.571168 -28.109924
1  138 1.272188  -176.635183 -33.289015
1  139 1.272188  -178.696242 -40.057510
1  140 1.272188  -175.340663 -44.868360
1  141 1.272188  -170.493250 -44.593948
1  142 1.272188  -165.986240 -40.975373
1  143 1.272188  -162.421363 -36.371345
1  144 1.272188  -165.389405 -32.094857
1  145 1.272188  -168.721823 -29.149901
1  146 1.272188  -174.935038 -32.406389
1  147 1.272188  -176.938851 -36.219239
1  148 1.272188  -175.548290 -43.083314
1  149 1.272188  -171.094344 -46.213263
1  150 1.272188  -164.631765 -44.804369
1  151 1.272188  -160.569740 -40.596257
1  152 1.272188  -161.819038 -36.298478
1  153 1.272188  -165.645923 -30.235047
1  154 1.272188  -173.101180 -28.383831
1  155 1.272188  -175.932195 -33.786678
1  156 1.272188  -172.829417 -38.919615
1  157 1.272188  -167.622123 -42.430422
2  1 1.272188  24.084126 123.344400
2  2 1.272188  20.915209 128.880652
2  3 1.272188  17.322223 132.290541
2  4 1.272188  15.402807 134.720186
2  5 1.272188  10.426118 136.189384
2  6 1.272188  4.536162 134.665209
2  7 1.272188  -0.015943 127.537763
2  8 1.272188  -4.693663 124.255399
2  9 1.272188  -4.722556 117.056676
2  10 1.272188  -6.760768 114.621828
2  11 1.272188  -10.612186 111.754654
2  12 1.272188  -15.273399 106.144929
2  13 1.272188  -20.528275 104.905814
2  14 1.272188  -26.023494 105.837353
2  15 1.272188  -32.774978 106.873350
2  16 1.272188  -36.167291 114.446626
2  17 1.272188  -40.888125 116.397069
2  18 1.272188  -41.783641 124.257746
2  19 1.272188  -41.151286 128.793706
2  20 1.272188  -36.158103 131.550372
2  21 1.272188  -29.037925 134.883795
2  22 1.272188  -25.530432 133.520001
2  23 1.272188  -18.337390 134.040337
2  24 1.272188  -11.955496 131.569464
2  25 1.272188  -8.529464 128.598682
2  26 1.272188  -5.533515 122.999950
2  27 1.272188  -8.790328 118.407744
2  28 1.272188  -11.747403 114.027353
2  29 1.272188  -17.714395 113.457662
2  30 1.272188  -23.082084 113.786194
2  31 1.272188  -20.217636 119.782099
2  32 1.272188  -21.953768 123.969373
2  33 1.272188  -18.506300 127.997242
2  34 1.272188  -15.479305 132.721080
2  35 1.272188  -12.978862 136.918914
2  36 1.272188  -11.828368 140.634114
2  37 1.272188  -8.543641 146.129018
2  38 1.272188  -5.902963 149.732254
2  39 1.272188  -5.124633 153.688303
2  40 1.272188  -2.329623 157.749970
2  41 1.272188  -0.236735 163.161582
2  42 1.272188  4.182623 166.980165
2  43 1.272188  5.295667 170.232880
2  44 1.272188  9.178076 174.980992
2  45 1.272188  10.461106 180.625791
2  46 1.272188  14.741992 184.042529
2  47 1.272188  16.137144 188.981206
2  48 1.272188  18.219759 193.377717
2  49 1.272188  22.299429 198.772834
2  50 1.272188  25.717497 205.378484
2  51 1.272188  27.729386 210.764783
2  52 1.272188  30.207549 215.008561
2  53 1.272188  32.619089 220.181982
2  54 1.272188  37.743528 228.193695
2  55 1.272188  38.764478 231.982029
2  56 1.272188  40.038192 236.900651
2  57 1.272188  44.972160 242.511831
2  58 1.272188  50.219258 249.082619
2  59 1.272188  51.636239 254.699560
2  60 1.272188  53.790145 260.599328
2  61 1.272188  57.830016 267.167171
2  62 1.272188  60.386580 271.513220
2  63 1.272188  60.743353 278.516013
2  64 1.272188  59.845280 284.775353
2  65 1.272188  51.310431 287.203364
2  66 1.272188  46.477251 287.626102
2  67 1.272188  42.592227 279.405019
2  68 1.272188  42.971115 276.684409
2  69 1.272188  43.580566 269.126048
2  70 1.272188  50.617926 267.352635
2  71 1.272188  55.166744 268.311270
2  72 1.272188  58.330830 272.408292
2  73 1.272188  58.937554 278.823281
2  74 1.272188  55.156399 282.664702
2  75 1.272188  50.970894 284.886926
2  76 1.272188  45.986641 284.550841
2  77 1.272188  42.665482 277.464807
2  78 1.272188  40.886902 274.771899
2  79 1.272188  47.093119 270.590164
2  80 1.272188  50.672272 269.074298
2  81 1.272188  54.673648 270.337195
2  82 1.272188  56.295504 273.100832
2  83 1.272188  56.545376 280.014507
2  84 1.272188  52.294769 282.434838
2  85 1.272188  49.370885 285.762284
2  86 1.272188  46.342054 282.332897
2  87 1.272188  45.124615 277.923844
2  88 1.272188  44.590990 274.647595
2  89 1.272188  46.758920 266.458671
2  90 1.272188  51.931407 269.099525
2  91 1.272188  55.519285 271.522381
2  92 1.272188  60.398257 275.918274
2  93 1.272188  58.660763 281.662739
2  94 1.272188  54.667065 283.467907
2  95 1.272188  52.125923 287.544857
2  96 1.272188  47.276371 288.118710
2  97 1.272188  42.024804 290.640714
2  98 1.272188  37.297071 292.264897
2  99 1.272188  33.625296 293.315339
2  100 1.272188  26.581682 295.925111
2  101 1.272188  24.853170 299.269147
2  102 1.272188  21.203070 302.007670
2  103 1.272188  15.041355 304.639365
2  104 1.272188  10.661981 303.959130
2  105 1.272188  5.320151 311.548794
2  106 1.272188  0.059637 309.741690
2  107 1.272188  -1.950490 313.155780
2  108 1.272188  -5.339646 314.848079
2  109 1.272188  -11.189846 315.328739
2  110 1.272188  -15.485411 319.964971
2  111 1.272188  -20.450937 322.646963
2  112 1.272188  -22.754111 322.207623
2  113 1.272188  -29.010654 323.972930
2  114 1.272188  -33.732305 327.557698
2  115 1.272188  -37.494932 329.534037
2  116 1.272188  -41.723540 333.399068
2  117 1.272188  -47.281192 332.610867
2  118 1.272188  -51.404624 336.400102
2  119 1.272188  -56.843444 337.874102
2  120 1.272188  -60.693918 341.311228
2  121 1.272188  -64.138616 345.062322
2  122 1.272188  -69.729773 347.007147
2  123 1.272188  -76.163517 347.575687
2  124 1.272188  -80.627585 349.982247
2  125 1.272188  -87.351818 355.855664
2  126 1.272188  -89.999299 354.912467
2  127 1.272188  -95.397342 351.227460
2  128 1.272188  -96.971563 344.686020
2  129 1.272188  -93.631942 340.572814
2  130 1.272188  -92.607669 335.556738
2  131 1.272188  -88.403452 333.686775
2  132 1.272188  -83.022983 335.927744
2  133 1.272188  -77.622585 335.588378
2  134 1.272188  -73.653200 338.853612
2  135 1.272188  -71.112644 344.655508
2  136 1.272188  -67.877483 347.416722
2  137 1.272188  -70.034460 353.712968
2  138 1.272188  -72.789982 358.015983
2  139 1.272188  -74.618455 364.314098
2  140 1.272188  -79.586769 367.610494
2  141 1.272188  -85.455148 366.411212
2  142 1.272188  -89.675109 364.012204
2  143 1.272188  -91.825826 357.700795
2  144 1.272188  -93.477238 351.993394
2  145 1.272188  -91.880088 347.475883
2  146 1.272188  -83.715627 342.994341
2  147 1.272188  -77.335292 346.149317
2  148 1.272188  -76.929265 353.180104
2  149 1.272188  -81.108849 356.250701
2  150 1.272188  -87.769735 357.618853
2  151 1.272188  -93.934732 351.460939
2  152 1.272188  -89.046512 346.225372
2  153 1.272188  -82.581261 347.991855
2  154 1.272188  -81.062944 356.766876
2  155 1.272188  -86.389284 358.092613
2  156 1.272188  -93.754914 353.623501
2  157 1.272188  -89.973835 347.349320
3  1 1.272188  24.392359 125.088651
3  2 1.272188  22.707897 131.071669
3  3 1.272188  23.630080 135.311074
3  4 1.272188  24.758211 141.083671
3  5 1.272188  27.259696 144.858252
3  6 1.272188  29.704518 149.429990
3  7 1.272188  34.751647 148.078564
3  8 1.272188  40.610167 153.168448
3  9 1.272188  43.774201 152.431563
3  10 1.272188  50.103732 148.766292
3  11 1.272188  54.514331 149.023277
3  12 1.272188  60.305379 145.298521
3  13 1.272188  64.321082 147.414688
3  14 1.272188  72.457016 149.210954
3  15 1.272188  71.296718 151.018015
3  16 1.272188  75.996676 156.918006
3  17 1.272188  73.623870 162.771273
3  18 1.272188  71.784400 167.004099
3  19 1.272188  70.175121 170.024943
3  20 1.272188  63.384415 173.850731
3  21 1.272188  57.337995 173.894500
3  22 1.272188  53.423719 170.480729
3  23 1.272188  48.705069 166.010620
3  24 1.272188  47.022718 158.698648
3  25 1.272188  46.573250 153.363237
3  26 1.272188  48.940905 147.234127
3  27 1.272188  53.094066 142.588194
3  28 1.272188  57.186531 136.256433
3  29 1.272188  63.349000 136.591735
3  30 1.272188  70.823612 141.601976
3  31 1.272188  70.363734 148.650037
3  32 1.272188  70.695545 152.231213
3  33 1.272188  69.719835 158.820517
3  34 1.272188  69.824157 164.377042
3  35 1.272188  70.380192 172.902938
3  36 1.272188  68.882170 179.037222
3  37 1.272188  70.663907 185.168367
3  38 1.272188  67.664993 190.948784
3  39 1.272188  70.341485 196.678105
3  40 1.272188  69.211468 202.936584
3  41 1.272188  68.473605 208.261470
3  42 1.272188  69.345187 216.864562
3  43 1.272188  68.741067 222.141261
3  44 1.272188  68.997060 228.456087
3  45 1.272188  67.433318 234.404857
3  46 1.272188  67.621081 240.157950
3  47 1.272188  66.105548 245.367765
3  48 1.272188  68.128079 252.963748
3  49 1.272188  67.127906 258.095159
3  50 1.272188  67.914881 262.650976
3  51 1.272188  66.995396 267.895946
3  52 1.272188  67.376001 272.597763
3  53 1.272188  66.958152 281.700708
3  54 1.272188  69.213044 283.778880
3  55 1.272188  68.647974 291.144701
3  56 1.272188  69.343621 295.756798
3  57 1.272188  66.357503 301.703427
3  58 1.272188  66.849049 308.840480
3  59 1.272188  67.590066 314.471941
3  60 1.272188  67.073642 318.999601
3  61 1.272188  67.761617 326.378857
3  62 1.272188  66.511104 332.040968
3  63 1.272188  65.094477 337.573686
3  64 1.272188  60.856012 343.262494
3  65 1.272188  55.584976 341.599725
3  66 1.272188  50.938049 338.182830
3  67 1.272188  47.784888 331.571371
3  68 1.272188  48.813659 325.632111
3  69 1.272188  54.338912 321.532355
3  70 1.272188  59.327110 323.382266
3  71 1.272188  65.054960 327.256669
3  72 1.272188  66.138659 332.183852
3  73 1.272188  62.161086 336.852607
3  74 1.272188  59.959663 339.919861
3  75 1.272188  51.506574 339.462676
3  76 1.272188  49.082162 336.971743
3  77 1.272188  47.246708 330.387341
3  78 1.272188  49.006134 325.140227
3  79 1.272188  53.278406 324.333523
3  80 1.272188  56.946777 323.436442
3  81 1.272188  62.415302 325.083250
3  82 1.272188  64.458800 331.723643
3  83 1.272188  58.798436 338.348993
3  84 1.272188  54.535140 340.813712
3  85 1.272188  47.391090 337.717400
3  86 1.272188  43.981489 332.807100
3  87 1.272188  42.141390 326.776032
3  88 1.272188  47.799159 321.230270
3  89 1.272188  54.380343 319.225838
3  90 1.272188  57.955042 320.092611
3  91 1.272188  63.374458 327.075764
3  92 1.272188  63.611705 335.281789
3  93 1.272188  60.602636 338.211812
3  94 1.272188  55.180505 341.704000
3  95 1.272188  48.488875 338.649772
3  96 1.272188  41.073754 340.382637
3  97 1.272188  35.054555 343.064791
3  98 1.272188  29.481206 342.874011
3  99 1.272188  20.912120 343.976675
3  100 1.272188  12.412809 344.568896
3  101 1.272188  4.534325 346.893230
3  102 1.272188  0.949859 345.951921
3  103 1.272188  -6.999489 348.338204
3  104 1.272188  -14.573447 347.623116
3  105 1.272188  -20.873084 348.990914
3  106 1.272188  -28.381912 349.905516
3  107 1.272188  -34.978646 351.667393
3  108 1.272188  -41.813280 352.678872
3  109 1.272188  -49.020262 354.049182
3  110 1.272188  -57.722616 354.664620
3  111 1.272188  -63.659278 355.481723
3  112 1.272188  -72.268214 355.431653
3  113 1.272188  -78.417608 359.290147
3  114 1.272188  -85.461037 359.517488
3  115 1.272188  -91.979034 361.770823
3  116 1.272188  -100.436287 362.751758
3  117 1.272188  -106.480449 364.456373
3  118 1.272188  -113.979581 363.864820
3  119 1.272188  -119.522377 365.138984
3  120 1.272188  -128.015755 367.520096
3  121 1.272188  -135.376171 369.116085
3  122 1.272188  -141.742882 371.139285
3  123 1.272188  -148.932833 372.732745
3  124 1.272188  -155.689006 375.230745
3  125 1.272188  -162.032725 377.129921
3  126 1.272188  -171.644690 373.743962
3  127 1.272188  -173.491510 369.611258
3  128 1.272188  -170.792509 363.215111
3  129 1.272188  -167.471961 362.016546
3  130 1.272188  -163.395465 368.933680
3  131 1.272188  -170.283445 371.718637
3  132 1.272188  -172.616423 365.502048
3  133 1.272188  -168.508142 362.908527
3  134 1.272188  -165.027848 366.607654
3  135 1.272188  -168.217548 371.691784
3  136 1.272188  -173.727600 368.838796
3  137 1.272188  -171.781853 361.011107
3  138 1.272188  -164.351115 362.655164
3  139 1.272188  -165.600406 372.362298
3  140 1.272188  -170.661178 373.076288
3  141 1.272188  -173.863667 363.313540
3  142 1.272188  -168.436743 358.315093
3  143 1.272188  -162.909059 365.507086
3  144 1.272188  -163.770758 371.890260
3  145 1.272188  -168.162941 374.152335
3  146 1.272188  -175.069366 373.833796
3  147 1.272188  -176.969473 365.815163
3  148 1.272188  -168.960492 360.592842
3  149 1.272188  -161.407318 358.379580
3  150 1.272188  -157.716008 365.004555
3  151 1.272188  -157.141653 372.453052
3  152 1.272188  -158.707789 378.499623
3  153 1.272188  -164.048637 385.724958
3  154 1.272188  -170.300086 387.200360
3  155 1.272188  -179.899902 390.447591
3  156 1.272188  -186.514873 389.586014
3  157 1.272188  -193.291611 386.534711
4  1 1.272188  22.260026 125.423446
4  2 1.272188  21.431142 131.753105
4  3 1.272188  17.113529 133.773972
4  4 1.272188  11.967273 134.061007
4  5 1.272188  6.563214 128.811736
4  6 1.272188  6.410732 123.467390
4  7 1.272188  10.925360 118.770220
4  8 1.272188  15.154410 120.614589
4  9 1.272188  20.144795 126.089382
4  10 1.272188  21.513098 130.673150
4  11 1.272188  17.575066 136.361224
4  12 1.272188  13.648125 139.961387
4  13 1.272188  6.733177 142.163194
4  14 1.272188  2.567252 139.494916
4  15 1.272188  -1.270057 136.405386
4  16 1.272188  -5.512165 131.976474
4  17 1.272188  -4.737333 125.529153
4  18 1.272188  -4.187582 120.245276
4  19 1.272188  1.250012 115.888491
4  20 1.272188  5.741413 112.418701
4  21 1.272188  9.192763 113.503469
4  22 1.272188  15.582801 110.538969
4  23 1.272188  19.982647 113.132186
4  24 1.272188  26.354724 111.920236
4  25 1.272188  27.634822 114.216806
4  26 1.272188  33.803386 113.534880
4  27 1.272188  37.635472 113.891060
4  28 1.272188  43.525284 112.696589
4  29 1.272188  48.153206 110.342445
4  30 1.272188  51.076982 110.237313
4  31 1.272188  56.867266 108.411678
4  32 1.272188  61.498702 107.025993
4  33 1.272188  65.410969 105.661951
4  34 1.272188  67.521984 104.091205
4  35 1.272188  71.511714 103.266195
4  36 1.272188  74.142339 99.653778
4  37 1.272188  78.964510 99.620906
4  38 1.272188  83.237329 98.228498
4  39 1.272188  87.688380 96.957396
4  40 1.272188  91.028217 96.286991
4  41 1.272188  95.174809 94.936407
4  42 1.272188  98.221807 93.242590
4  43 1.272188  102.080892 91.775410
4  44 1.272188  105.239242 90.563282
4  45 1.272188  109.246090 90.200924
4  46 1.272188  111.757532 89.587056
4  47 1.272188  117.097632 87.129945
4  48 1.272188  118.704591 86.043122
4  49 1.272188  125.550503 84.905985
4  50 1.272188  127.101241 82.790565
4  51 1.272188  129.753056 83.418833
4  52 1.272188  134.555924 79.413231
4  53 1.272188  139.159499 79.239111
4  54 1.272188  142.092002 78.117356
4  55 1.272188  145.659866 76.361278
4  56 1.272188  148.075619 73.820376
4  57 1.272188  152.563240 73.468276
4  58 1.272188  155.092789 71.230839
4  59 1.272188  158.910306 70.181791
4  60 1.272188  160.902505 69.961469
4  61 1.272188  166.520988 68.874393
4  62 1.272188  171.549548 65.033941
4  63 1.272188  173.185329 65.700380
4  64 1.272188  177.576897 66.339686
4  65 1.272188  177.455453 72.807667
4  66 1.272188  176.688507 76.412924
4  67 1.272188  173.241725 78.869210
4  68 1.272188  170.509951 76.624387
4  69 1.272188  166.669607 74.332464
4  70 1.272188  165.188973 71.228414
4  71 1.272188  167.048372 67.045531
4  72 1.272188  171.206510 66.710852
4  73 1.272188  173.000109 65.646024
4  74 1.272188  179.160084 66.820108
4  75 1.272188  178.652917 71.566063
4  76 1.272188  177.344823 74.282655
4  77 1.272188  173.641504 77.894339
4  78 1.272188  171.528771 78.041893
4  79 1.272188  165.822828 75.971621
4  80 1.272188  165.116404 72.339745
4  81 1.272188  168.397314 68.347239
4  82 1.272188  168.297144 66.992108
4  83 1.272188  172.945194 66.174470
4  84 1.272188  177.470624 70.746311
4  85 1.272188  178.300311 75.054916
4  86 1.272188  174.692490 78.110802
4  87 1.272188  170.213968 82.490829
4  88 1.272188  168.752425 78.138079
4  89 1.272188  163.708836 74.675812
4  90 1.272188  162.804258 70.732826
4  91 1.272188  166.579573 67.529494
4  92 1.272188  170.199843 64.736607
4  93 1.272188  174.984674 67.457866
4  94 1.272188  177.270932 72.206185
4  95 1.272188  180.539653 74.524764
4  96 1.272188  180.336406 81.107580
4  97 1.272188  182.711939 85.846290
4  98 1.272188  183.123809 90.183382
4  99 1.272188  183.911659 94.670538
4  100 1.272188  186.621944 99.539924
4  101 1.272188  190.966742 103.617889
4  102 1.272188  192.864401 110.253547
4  103 1.272188  193.227097 114.416597
4  104 1.272188  196.373711 120.650365
4  105 1.272188  200.156959 122.693019
4  106 1.272188  200.089749 128.706320
4  107 1.272188  202.260323 134.553074
4  108 1.272188  205.396735 137.695866
4  109 1.272188  207.875534 144.435710
4  110 1.272188  211.070624 147.903398
4  111 1.272188  213.742889 151.677312
4  112 1.272188  216.725747 157.898904
4  113 1.272188  217.097598 160.874022
4  114 1.272188  219.375514 164.622009
4  115 1.272188  220.565894 171.378072
4  116 1.272188  225.164372 176.829246
4  117 1.272188  226.874305 183.801960
4  118 1.272188  228.562421 187.502578
4  119 1.272188  231.034670 192.427437
4  120 1.272188  232.647555 198.080328
4  121 1.272188  234.921082 205.148567
4  122 1.272188  240.236903 211.720267
4  123 1.272188  241.114785 217.089046
4  124 1.272188  245.250326 221.557407
4  125 1.272188  247.816573 226.409756
4  126 1.272188  248.810612 234.944448
4  127 1.272188  246.551585 239.900000
4  128 1.272188  240.753866 243.085506
4  129 1.272188  231.861082 244.850458
4  130 1.272188  227.073465 242.165592
4  131 1.272188  223.188470 237.007545
4  132 1.272188  227.016926 228.057950
4  133 1.272188  233.466653 227.134385
4  134 1.272188  235.435367 230.391990
4  135 1.272188  235.125935 237.664310
4  136 1.272188  229.683133 237.565451
4  137 1.272188  228.826542 230.075687
4  138 1.272188  235.246763 228.775105
4  139 1.272188  235.136747 236.031331
4  140 1.272188  229.450261 236.778722
4  141 1.272188  229.247593 228.564098
4  142 1.272188  234.453646 228.949035
4  143 1.272188  236.610288 233.903260
4  144 1.272188  231.733681 238.202123
4  145 1.272188  224.802971 233.698083
4  146 1.272188  224.424086 227.726910
4  147 1.272188  230.479902 225.133934
4  148 1.272188  237.197977 227.646661
4  149 1.272188  236.329862 232.953689
4  150 1.272188  227.325135 236.580744
4  151 1.272188  223.468399 230.203091
4  152 1.272188  222.179508 222.549745
4  153 1.272188  226.586411 217.477283
4  154 1.272188  235.416845 219.365686
4  155 1.272188  238.028285 224.014183
4  156 1.272188  233.574408 229.475605
4  157 1.272188  227.576816 225.919309
5  1 1.272188  24.682750 124.810310
5  2 1.272188  21.866261 130.969921
5  3 1.272188  18.595477 131.402531
5  4 1.272188  11.729306 130.078970
5  5 1.272188  9.033227 128.376006
5  6 1.272188  8.603926 122.907320
5  7 1.272188  11.138962 117.281470
5  8 1.272188  14.417724 119.203718
5  9 1.272188  17.573272 122.358149
5  10 1.272188  14.516226 125.649712
5  11 1.272188  10.342699 124.530016
5  12 1.272188  14.953409 119.524812
5  13 1.272188  20.268331 122.811273
5  14 1.272188  15.679211 124.522506
5  15 1.272188  13.730644 124.523572
5  16 1.272188  11.411697 120.437797
5  17 1.272188  16.378968 118.519076
5  18 1.272188  16.005515 123.077268
5  19 1.272188  12.367462 123.183276
5  20 1.272188  12.281711 119.334837
5  21 1.272188  15.964891 118.667591
5  22 1.272188  18.918563 123.943618
5  23 1.272188  14.219343 123.839598
5  24 1.272188  12.348504 121.585967
5  25 1.272188  14.072538 120.905628
5  26 1.272188  15.955396 122.240450
5  27 1.272188  12.542053 125.258340
5  28 1.272188  12.221374 120.173233
5  29 1.272188  15.709729 118.088014
5  30 1.272188  19.219356 123.625524
5  31 1.272188  14.745295 126.416195
5  32 1.272188  9.334332 125.508497
5  33 1.272188  3.134408 127.177040
5  34 1.272188  -1.729575 127.926932
5  35 1.272188  -5.869115 128.285524
5  36 1.272188  -9.369701 127.238819
5  37 1.272188  -16.058574 127.423961
5  38 1.272188  -20.884292 126.187379
5  39 1.272188  -25.383051 126.651411
5  40 1.272188  -32.009887 124.511068
5  41 1.272188  -36.235645 125.674312
5  42 1.272188  -41.903583 128.206467
5  43 1.272188  -47.429453 126.696807
5  44 1.272188  -52.517447 124.951414
5  45 1.272188  -56.911637 126.870329
5  46 1.272188  -61.895808 128.193574
5  47 1.272188  -66.082478 128.368273
5  48 1.272188  -73.011841 124.683827
5  49 1.272188  -76.540344 126.848983
5  50 1.272188  -82.042628 128.413003
5  51 1.272188  -87.383908 124.091117
5  52 1.272188  -92.095550 126.619348
5  53 1.272188  -97.494312 127.939821
5  54 1.272188  -102.577831 125.751755
5  55 1.272188  -105.644316 125.064373
5  56 1.272188  -109.887108 126.217249
5  57 1.272188  -113.686161 125.766486
5  58 1.272188  -117.181575 123.788705
5  59 1.272188  -118.663324 123.841024
5  60 1.272188  -125.680395 124.384244
5  61 1.272188  -131.200960 122.163988
5  62 1.272188  -135.522994 123.519750
5  63 1.272188  -137.315434 123.445548
5  64 1.272188  -139.235400 120.146204
5  65 1.272188  -139.281602 115.571847
5  66 1.272188  -137.305015 112.088578
5  67 1.272188  -133.430578 112.877945
5  68 1.272188  -129.776522 114.195854
5  69 1.272188  -127.515658 119.250281
5  70 1.272188  -128.153429 120.156825
5  71 1.272188  -130.075019 123.703761
5  72 1.272188  -136.988495 122.768476
5  73 1.272188  -136.510459 122.632208
5  74 1.272188  -136.895982 117.671334
5  75 1.272188  -137.814361 115.710587
5  76 1.272188  -133.316841 113.158930
5  77 1.272188  -130.595439 114.838255
5  78 1.272188  -127.162689 116.247200
5  79 1.272188  -125.905648 119.366160
5  80 1.272188  -130.062108 122.310314
5  81 1.272188  -132.143393 124.830067
5  82 1.272188  -136.792192 124.529201
5  83 1.272188  -138.648541 120.819507
5  84 1.272188  -138.550360 119.169176
5  85 1.272188  -136.180600 113.895453
5  86 1.272188  -132.106540 112.632754
5  87 1.272188  -130.474076 112.651012
5  88 1.272188  -124.560758 118.445805
5  89 1.272188  -125.816831 121.324796
5  90 1.272188  -130.434144 124.687531
5  91 1.272188  -132.230898 127.027402
5  92 1.272188  -135.138498 122.227733
5  93 1.272188  -135.790235 120.225374
5  94 1.272188  -137.514182 115.343325
5  95 1.272188  -136.997811 111.817712
5  96 1.272188  -133.899368 109.359987
5  97 1.272188  -133.339984 105.764465
5  98 1.272188  -130.239701 102.576599
5  99 1.272188  -131.678859 99.099323
5  100 1.272188  -126.951069 97.305577
5  101 1.272188  -127.967657 92.157970
5  102 1.272188  -125.863691 90.230313
5  103 1.272188  -122.996319 86.876364
5  104 1.272188  -122.169654 82.631663
5  105 1.272188  -120.570819 78.278812
5  106 1.272188  -117.068768 75.994505
5  107 1.272188  -117.043331 72.986835
5  108 1.272188  -112.260724 70.811895
5  109 1.272188  -112.117884 65.019670
5  110 1.272188  -108.538625 63.040197
5  111 1.272188  -104.415831 58.778832
5  112 1.272188  -102.845434 57.131083
5  113 1.272188  -101.879356 52.078993
5  114 1.272188  -98.897403 47.751355
5  115 1.272188  -96.731650 46.376429
5  116 1.272188  -94.939712 42.892088
5  117 1.272188  -91.687956 39.126317
5  118 1.272188  -89.598561 36.818265
5  119 1.272188  -88.688079 32.058932
5  120 1.272188  -87.296841 28.709821
5  121 1.272188  -85.675700 25.689778
5  122 1.272188  -80.677565 20.236168
5  123 1.272188  -78.943266 19.532223
5  124 1.272188  -76.450900 17.105269
5  125 1.272188  -73.280300 14.393667
5  126 1.272188  -71.739779 9.905019
5  127 1.272188  -66.116840 9.998832
5  128 1.272188  -62.299678 17.151937
5  129 1.272188  -65.002478 20.387580
5  130 1.272188  -67.723411 21.699496
5  131 1.272188  -70.938494 18.436680
5  132 1.272188  -73.476878 18.919917
5  133 1.272188  -68.137851 12.870142
5  134 1.272188  -66.215528 14.858695
5  135 1.272188  -66.267831 15.612157
5  136 1.272188  -66.835803 19.463120
5  137 1.272188  -67.953952 23.078786
5  138 1.272188  -74.422893 20.712124
5  139 1.272188  -72.737293 17.038497
5  140 1.272188  -70.123594 16.924510
5  141 1.272188  -66.832448 16.618300
5  142 1.272188  -67.376466 20.895496
5  143 1.272188  -70.575426 21.147362
5  144 1.272188  -73.635078 20.073766
5  145 1.272188  -72.766083 15.908139
5  146 1.272188  -68.723469 15.583725
5  147 1.272188  -68.917350 16.343164
5  148 1.272188  -68.972553 19.677874
5  149 1.272188  -71.831063 23.107035
5  150 1.272188  -74.881194 20.284775
5  151 1.272188  -74.494289 18.162227
5  152 1.272188  -72.572060 15.439887
5  153 1.272188  -70.714994 17.815702
5  154 1.272188  -71.105518 19.553495
5  155 1.272188  -67.446474 23.642534
5  156 1.272188  -70.074043 27.144054
5  157 1.272188  -73.019278 24.831884
6  1 1.272188  24.868024 125.578895
6  2 1.272188  22.883655 130.131697
6  3 1.272188  22.922796 135.195119
6  4 1.272188  17.311680 140.442946
6  5 1.272188  12.210959 139.444803
6  6 1.272188  7.342809 142.488732
6  7 1.272188  1.447610 144.681439
6  8 1.272188  -4.881242 145.901479
6  9 1.272188  -9.261893 148.841494
6  10 1.272188  -12.854690 151.383087
6  11 1.272188  -17.725112 156.201650
6  12 1.272188  -18.664729 162.479971
6  13 1.272188  -17.805776 168.660937
6  14 1.272188  -14.042523 173.997387
6  15 1.272188  -10.494373 180.929326
6  16 1.272188  -4.165745 183.192225
6  17 1.272188  3.113037 183.424030
6  18 1.272188  7.619188 182.286405
6  19 1.272188  13.029315 177.238660
6  20 1.272188  20.017969 176.342848
6  21 1.272188  27.923443 177.101011
6  22 1.272188  33.774661 179.554144
6  23 1.272188  38.716555 183.402044
6  24 1.272188  42.818479 188.676707
6  25 1.272188  44.049342 193.846149
6  26 1.272188  42.318516 202.278970
6  27 1.272188  43.441171 207.491297
6  28 1.272188  39.970529 213.316039
6  29 1.272188  33.351173 217.342738
6  30 1.272188  29.623027 219.110215
6  31 1.272188  22.641867 219.333341
6  32 1.272188  16.805514 220.289530
6  33 1.272188  11.299726 220.475149
6  34 1.272188  2.655368 220.827479
6  35 1.272188  -2.613061 220.984859
6  36 1.272188  -8.146780 219.744671
6  37 1.272188  -14.302710 221.247109
6  38 1.272188  -22.436803 219.083151
6  39 1.272188  -28.292223 219.487896
6  40 1.272188  -34.625418 220.032783
6  41 1.272188  -41.370800 219.668554
6  42 1.272188  -46.361374 219.891315
6  43 1.272188  -52.023812 220.749977
6  44 1.272188  -57.326109 222.435930
6  45 1.272188  -65.481991 221.573472
6  46 1.272188  -70.789788 220.634010
6  47 1.272188  -76.752170 221.630901
6  48 1.272188  -80.498552 219.297398
6  49 1.272188  -85.413503 219.980126
6  50 1.272188  -93.348835 219.694643
6  51 1.272188  -98.174126 220.016826
6  52 1.272188  -102.117157 218.494053
6  53 1.272188  -108.562198 220.646081
6  54 1.272188  -113.883463 219.631390
6  55 1.272188  -120.015661 217.376789
6  56 1.272188  -126.952925 217.739506
6  57 1.272188  -129.687671 216.519055
6  58 1.272188  -133.347212 214.559802
6  59 1.272188  -137.788267 215.124018
6  60 1.272188  -144.170220 215.448122
6  61 1.272188  -150.677703 215.782199
6  62 1.272188  -154.868968 214.366763
6  63 1.272188  -159.360474 212.656652
6  64 1.272188  -159.501340 208.192949
6  65 1.272188  -162.597298 200.942593
6  66 1.272188  -158.885900 199.847589
6  67 1.272188  -153.928722 200.700113
6  68 1.272188  -149.327291 201.941269
6  69 1.272188  -148.991831 206.987584
6  70 1.272188  -147.604550 210.709099
6  71 1.272188  -151.130961 213.811761
6  72 1.272188  -156.834471 214.218940
6  73 1.272188  -161.009163 211.505762
6  74 1.272188  -160.100969 207.078950
6  75 1.272188  -158.982729 202.180162
6  76 1.272188  -157.434903 199.606566
6  77 1.272188  -151.041561 201.460365
6  78 1.272188  -145.441459 202.910881
6  79 1.272188  -145.513782 205.539848
6  80 1.272188  -148.063344 212.028611
6  81 1.272188  -149.070640 213.830653
6  82 1.272188  -156.032469 215.339166
6  83 1.272188  -160.717220 211.950380
6  84 1.272188  -160.490768 207.244479
6  85 1.272188  -162.146193 203.833552
6  86 1.272188  -156.450388 201.674224
6  87 1.272188  -153.611064 200.679038
6  88 1.272188  -148.267886 202.564640
6  89 1.272188  -145.711680 206.935529
6  90 1.272188  -149.184043 212.583464
6  91 1.272188  -151.304742 211.371069
6  92 1.272188  -156.383354 215.277041
6  93 1.272188  -159.421432 210.126108
6  94 1.272188  -162.290807 206.076093
6  95 1.272188  -162.120721 204.331068
6  96 1.272188  -161.799631 200.476243
6  97 1.272188  -162.587539 193.937987
6  98 1.272188  -160.215544 190.181791
6  99 1.272188  -159.886628 185.920141
6  100 1.272188  -161.345091 180.830756
6  101 1.272188  -159.763120 175.699096
6  102 1.272188  -157.988154 172.622765
6  103 1.272188  -158.778730 167.056791
6  104 1.272188  -160.173198 163.082683
6  105 1.272188  -160.126783 159.678806
6  106 1.272188  -157.543943 156.045635
6  107 1.272188  -155.469654 151.317874
6  108 1.272188  -156.409926 146.457545
6  109 1.272188  -154.592231 143.555391
6  110 1.272188  -154.411614 141.049459
6  111 1.272188  -154.756592 136.222254
6  112 1.272188  -155.370541 133.650815
6  113 1.272188  -153.683802 130.284898
6  114 1.272188  -151.098216 125.574915
6  115 1.272188  -151.630881 121.880745
6  116 1.272188  -150.518832 116.629092
6  117 1.272188  -150.616305 115.066467
6  118 1.272188  -149.508568 114.297659
6  119 1.272188  -148.317424 111.307891
6  120 1.272188  -147.172426 106.973759
6  121 1.272188  -146.123814 103.373829
6  122 1.272188  -144.361713 103.497650
6  123 1.272188  -144.866352 99.335722
6  124 1.272188  -144.105080 97.648368
6  125 1.272188  -143.711257 94.989942
6  126 1.272188  -141.098510 93.829573
6  127 1.272188  -138.122233 93.554861
6  128 1.272188  -137.603902 94.591583
6  129 1.272188  -135.976305 97.182565
6  130 1.272188  -138.124746 97.747420
6  131 1.272188  -140.242696 100.048006
6  132 1.272188  -138.859278 96.796019
6  133 1.272188  -137.855350 93.256391
6  134 1.272188  -133.967062 96.696837
6  135 1.272188  -137.604575 97.593960
6  136 1.272188  -139.397763 97.139385
6  137 1.272188  -141.675163 98.850293
6  138 1.272188  -143.067366 93.971998
6  139 1.272188  -138.570281 93.341738
6  140 1.272188  -134.961939 89.815601
6  141 1.272188  -132.888112 90.494763
6  142 1.272188  -130.939917 90.504247
6  143 1.272188  -127.971242 90.344862
6  144 1.272188  -126.547519 91.981065
6  145 1.272188  -123.239811 95.811713
6  146 1.272188  -123.597361 97.878585
6  147 1.272188  -127.243182 98.476445
6  148 1.272188  -129.400593 96.730727
6  149 1.272188  -129.031280 94.296124
6  150 1.272188  -127.332210 92.306811
6  151 1.272188  -123.593237 91.247009
6  152 1.272188  -122.587248 95.806278
6  153 1.272188  -123.824849 96.213288
6  154 1.272188  -127.048472 94.667388
6  155 1.272188  -124.247803 91.212385
6  156 1.272188  -124.789133 93.776999
6  157 1.272188  -126.224544 94.771106
7  1 1.272188  24.346291 123.547061
7  2 1.272188  21.230770 128.517926
7  3 1.272188  18.490077 132.746504
7  4 1.272188  15.413099 137.144644
7  5 1.272188  12.362599 142.515737
7  6 1.272188  10.207902 145.267984
7  7 1.272188  5.955382 149.059607
7  8 1.272188  1.127723 153.475360
7  9 1.272188  -4.295117 152.394285
7  10 1.272188  -7.672845 150.778041
7  11 1.272188  -13.088690 143.071089
7  12 1.272188  -14.338312 138.699923
7  13 1.272188  -12.033398 133.408668
7  14 1.272188  -11.434964 127.819611
7  15 1.272188  -6.271050 123.933960
7  16 1.272188  -2.395284 121.436272
7  17 1.272188  4.318692 118.267935
7  18 1.272188  8.913244 119.683744
7  19 1.272188  12.204435 123.030970
7  20 1.272188  15.146755 129.395687
7  21 1.272188  16.113668 136.211596
7  22 1.272188  15.604978 142.388978
7  23 1.272188  11.312021 145.865784
7  24 1.272188  9.375819 153.453855
7  25 1.272188  3.275129 158.333717
7  26 1.272188  1.790695 165.528663
7  27 1.272188  -4.782963 169.851196
7  28 1.272188  -7.959525 174.459351
7  29 1.272188  -13.304417 177.949079
7  30 1.272188  -18.929632 180.213063
7  31 1.272188  -23.541653 180.574762
7  32 1.272188  -30.923900 180.104947
7  33 1.272188  -39.197968 177.477631
7  34 1.272188  -44.517271 178.510918
7  35 1.272188  -49.434729 178.781611
7  36 1.272188  -53.379340 177.401004
7  37 1.272188  -60.929110 176.358614
7  38 1.272188  -67.793395 174.347323
7  39 1.272188  -72.154069 174.925661
7  40 1.272188  -78.795663 173.579307
7  41 1.272188  -82.522978 173.193272
7  42 1.272188  -89.842391 171.990112
7  43 1.272188  -96.272325 171.640116
7  44 1.272188  -100.246189 167.562389
7  45 1.272188  -105.086466 169.798632
7  46 1.272188  -107.685163 166.916998
7  47 1.272188  -114.989129 164.401866
7  48 1.272188  -120.292195 164.230207
7  49 1.272188  -127.224690 163.167730
7  50 1.272188  -134.008120 160.066992
7  51 1.272188  -137.673738 158.901386
7  52 1.272188  -144.619728 160.004190
7  53 1.272188  -149.156653 158.587832
7  54 1.272188  -153.305057 155.983385
7  55 1.272188  -159.280274 155.617697
7  56 1.272188  -163.594851 151.403799
7  57 1.272188  -171.255198 152.792693
7  58 1.272188  -175.281869 152.613435
7  59 1.272188  -184.350065 150.657172
7  60 1.272188  -190.168432 149.345653
7  61 1.272188  -192.813387 149.568570
7  62 1.272188  -198.876723 145.874110
7  63 1.272188  -203.626872 145.573007
7  64 1.272188  -206.016438 136.795832
7  65 1.272188  -206.573561 133.511384
7  66 1.272188  -199.833921 129.525516
7  67 1.272188  -193.180927 127.430924
7  68 1.272188  -188.790935 132.415684
7  69 1.272188  -185.692015 134.955942
7  70 1.272188  -185.966489 142.977510
7  71 1.272188  -191.102323 144.266321
7  72 1.272188  -197.803890 146.984210
7  73 1.272188  -202.631548 144.278169
7  74 1.272188  -205.911769 136.788599
7  75 1.272188  -203.919509 132.219354
7  76 1.272188  -199.515629 128.468379
7  77 1.272188  -193.893224 127.629126
7  78 1.272188  -188.992955 131.596040
7  79 1.272188  -186.788822 136.848419
7  80 1.272188  -190.352230 143.915616
7  81 1.272188  -195.864259 146.414474
7  82 1.272188  -201.393140 145.716235
7  83 1.272188  -205.108314 143.467983
7  84 1.272188  -206.660420 136.750898
7  85 1.272188  -203.232924 131.706632
7  86 1.272188  -197.465364 128.976621
7  87 1.272188  -193.353830 128.457466
7  88 1.272188  -188.947520 133.452917
7  89 1.272188  -186.613688 138.115810
7  90 1.272188  -189.422523 143.441264
7  91 1.272188  -193.946120 146.237740
7  92 1.272188  -199.314274 147.064840
7  93 1.272188  -206.015242 140.322398
7  94 1.272188  -205.245262 135.528475
7  95 1.272188  -202.728928 131.113225
7  96 1.272188  -202.403529 125.092685
7  97 1.272188  -201.929587 118.490974
7  98 1.272188  -198.486100 113.667569
7  99 1.272188  -200.152897 107.352838
7  100 1.272188  -198.047996 101.092574
7  101 1.272188  -196.862313 96.775196
7  102 1.272188  -194.857004 90.411467
7  103 1.272188  -192.115719 87.931171
7  104 1.272188  -190.184194 79.245710
7  105 1.272188  -189.686108 74.184942
7  106 1.272188  -188.935616 72.259382
7  107 1.272188  -189.789932 67.005928
7  108 1.272188  -187.238547 62.651540
7  109 1.272188  -185.236857 58.383904
7  110 1.272188  -183.163818 54.020925
7  111 1.272188  -182.931611 51.359145
7  112 1.272188  -183.149259 44.144214
7  113 1.272188  -180.627007 40.494411
7  114 1.272188  -179.399212 35.383616
7  115 1.272188  -178.164798 32.832552
7  116 1.272188  -176.847137 26.105667
7  117 1.272188  -175.196193 23.690019
7  118 1.272188  -176.526073 18.278667
7  119 1.272188  -173.638793 11.137419
7  120 1.272188  -173.628100 5.857671
7  121 1.272188  -169.998915 2.229191
7  122 1.272188  -165.764922 -2.811657
7  123 1.272188  -165.275680 -5.371117
7  124 1.272188  -164.607630 -10.269787
7  125 1.272188  -162.077645 -16.096118
7  126 1.272188  -159.667923 -19.622638
7  127 1.272188  -152.357027 -22.178658
7  128 1.272188  -146.201315 -20.679547
7  129 1.272188  -141.848591 -17.742896
7  130 1.272188  -137.866408 -15.747427
7  131 1.272188  -133.137418 -11.669026
7  132 1.272188  -127.830002 -7.995059
7  133 1.272188  -125.494745 -3.666958
7  134 1.272188  -121.130752 0.541184
7  135 1.272188  -116.252150 1.046499
7  136 1.272188  -111.768169 0.443354
7  137 1.272188  -105.008735 -3.044032
7  138 1.272188  -106.326136 -7.272599
7  139 1.272188  -106.929155 -13.242535
7  140 1.272188  -111.351833 -16.639449
7  141 1.272188  -112.111239 -18.788205
7  142 1.272188  -117.637989 -22.422499
7  143 1.272188  -122.619693 -22.513222
7  144 1.272188  -125.458250 -24.372211
7  145 1.272188  -131.725002 -22.767158
7  146 1.272188  -136.155524 -26.370225
7  147 1.272188  -142.711875 -25.627170
7  148 1.272188  -147.102842 -24.760300
7  149 1.272188  -150.870470 -25.536908
7  150 1.272188  -154.551206 -25.066865
7  151 1.272188  -160.904987 -25.660617
7  152 1.272188  -166.963074 -27.691562
7  153 1.272188  -172.071118 -30.587746
7  154 1.272188  -174.506207 -31.935794
7  155 1.272188  -179.987963 -34.040780
7  156 1.272188  -185.269622 -33.597630
7  157 1.272188  -190.526164 -31.896879
8  1 1.272188  24.737346 126.915756
8  2 1.272188  21.415344 131.460456
8  3 1.272188  18.061179 132.660899
8  4 1.272188  11.764266 131.094004
8  5 1.272188  7.690037 134.054874
8  6 1.272188  4.310411 131.406239
8  7 1.272188  -0.744321 127.419757
8  8 1.272188  -0.963232 121.464541
8  9 1.272188  1.316732 118.600351
8  10 1.272188  4.700656 115.828754
8  11 1.272188  10.036313 116.455263
8  12 1.272188  12.676896 118.112268
8  13 1.272188  16.963820 125.510490
8  14 1.272188  15.384678 129.867322
8  15 1.272188  14.306983 133.663957
8  16 1.272188  14.302145 138.110506
8  17 1.272188  10.309276 143.782884
8  18 1.272188  8.961188 147.266800
8  19 1.272188  6.258792 155.421241
8  20 1.272188  5.654537 160.053494
8  21 1.272188  4.539239 164.949230
8  22 1.272188  2.474212 168.219646
8  23 1.272188  -0.896942 174.900876
8  24 1.272188  -2.583763 181.000170
8  25 1.272188  -3.408904 184.312230
8  26 1.272188  -3.206048 190.051624
8  27 1.272188  -1.693219 195.365104
8  28 1.272188  -0.784133 201.214637
8  29 1.272188  0.354709 205.867066
8  30 1.272188  1.612940 210.931327
8  31 1.272188  1.052711 216.817050
8  32 1.272188  1.240290 222.907742
8  33 1.272188  2.730596 229.651975
8  34 1.272188  5.650954 232.771497
8  35 1.272188  5.166456 239.627382
8  36 1.272188  6.225733 243.975811
8  37 1.272188  5.944440 250.904649
8  38 1.272188  3.600375 257.936212
8  39 1.272188  4.391994 260.328183
8  40 1.272188  6.464996 266.340645
8  41 1.272188  3.756109 271.377224
8  42 1.272188  4.991027 275.063258
8  43 1.272188  4.212506 281.322229
8  44 1.272188  2.444996 287.088516
8  45 1.272188  0.497352 292.927896
8  46 1.272188  0.057859 300.161588
8  47 1.272188  -1.592194 305.214823
8  48 1.272188  -0.880770 309.159568
8  49 1.272188  -1.912366 315.235958
8  50 1.272188  -0.744083 321.418164
8  51 1.272188  -5.045117 327.901448
8  52 1.272188  -4.395620 335.392720
8  53 1.272188  -5.551491 340.310726
8  54 1.272188  -7.590376 348.274869
8  55 1.272188  -7.172276 353.394240
8  56 1.272188  -9.913326 358.385434
8  57 1.272188  -11.972325 364.940968
8  58 1.272188  -15.072351 371.232307
8  59 1.272188  -15.265834 378.658187
8  60 1.272188  -15.757526 385.423266
8  61 1.272188  -16.655419 391.910146
8  62 1.272188  -18.082075 397.859869
8  63 1.272188  -22.050193 405.702882
8  64 1.272188  -29.290833 406.518351
8  65 1.272188  -36.332404 406.025539
8  66 1.272188  -41.357801 398.233607
8  67 1.272188  -42.092362 391.515646
8  68 1.272188  -37.240943 387.416911
8  69 1.272188  -30.300038 384.613749
8  70 1.272188  -22.556658 387.202145
8  71 1.272188  -18.378953 394.322630
8  72 1.272188  -20.518056 398.511915
8  73 1.272188  -23.312891 402.287798
8  74 1.272188  -31.101248 406.518688
8  75 1.272188  -37.002128 403.000878
8  76 1.272188  -40.547970 395.716084
8  77 1.272188  -41.404109 391.823000
8  78 1.272188  -37.727612 385.799745
8  79 1.272188  -32.974398 384.874406
8  80 1.272188  -22.482377 385.629337
8  81 1.272188  -19.699588 391.585251
8  82 1.272188  -22.563126 397.630521
8  83 1.272188  -25.289346 402.464848
8  84 1.272188  -32.745168 406.763829
8  85 1.272188  -40.109163 402.831972
8  86 1.272188  -41.542841 396.588816
8  87 1.272188  -40.552483 387.407207
8  88 1.272188  -35.688425 385.207107
8  89 1.272188  -29.705497 382.883564
8  90 1.272188  -22.710813 385.659603
8  91 1.272188  -19.289924 390.910210
8  92 1.272188  -19.244108 399.567248
8  93 1.272188  -22.508743 404.541603
8  94 1.272188  -29.544660 407.017489
8  95 1.272188  -37.766929 405.463392
8  96 1.272188  -42.270305 405.868022
8  97 1.272188  -49.951261 406.630704
8  98 1.272188  -57.103744 407.653751
8  99 1.272188  -63.224151 406.036340
8  100 1.272188  -69.806811 405.528039
8  101 1.272188  -74.957704 404.898873
8  102 1.272188  -81.112375 401.939690
8  103 1.272188  -86.981791 401.230652
8  104 1.272188  -96.270074 398.950331
8  105 1.272188  -101.457165 398.720452
8  106 1.272188  -108.533002 394.952751
8  107 1.272188  -112.167481 395.601703
8  108 1.272188  -119.756657 394.576698
8  109 1.272188  -127.543968 391.593590
8  110 1.272188  -134.442595 392.508150
8  111 1.272188  -141.159849 388.775076
8  112 1.272188  -145.361767 388.481577
8  113 1.272188  -149.589807 385.789069
8  114 1.272188  -157.379509 384.003483
8  115 1.272188  -160.687705 384.653397
8  116 1.272188  -168.830677 383.213132
8  117 1.272188  -172.153919 382.001466
8  118 1.272188  -180.877257 376.856001
8  119 1.272188  -185.771750 377.522585
8  120 1.272188  -190.852523 374.986367
8  121 1.272188  -199.164804 373.900463
8  122 1.272188  -205.200366 369.903389
8  123 1.272188  -211.976239 368.026334
8  124 1.272188  -217.283329 365.526976
8  125 1.272188  -223.316401 363.413327
8  126 1.272188  -228.234892 358.453169
8  127 1.272188  -231.283919 352.500197
8  128 1.272188  -223.472453 349.445341
8  129 1.272188  -220.710189 349.152232
8  130 1.272188  -215.784784 356.908396
8  131 1.272188  -220.367158 358.792028
8  132 1.272188  -227.868165 357.977896
8  133 1.272188  -228.799972 351.442265
8  134 1.272188  -222.895041 346.043808
8  135 1.272188  -214.235703 346.698447
8  136 1.272188  -213.538986 351.475687
8  137 1.272188  -216.439631 357.147697
8  138 1.272188  -221.688940 356.467107
8  139 1.272188  -225.656259 353.631315
8  140 1.272188  -221.586484 348.835399
8  141 1.272188  -218.414976 352.246214
8  142 1.272188  -219.074299 355.721864
8  143 1.272188  -227.106723 356.326865
8  144 1.272188  -224.531700 349.200957
8  145 1.272188  -221.354888 352.199050
8  146 1.272188  -220.895842 356.970555
8  147 1.272188  -228.025621 350.398688
8  148 1.272188  -222.752166 347.752787
8  149 1.272188  -222.411602 354.131595
8  150 1.272188  -225.476830 353.092963
8  151 1.272188  -225.047503 349.253198
8  152 1.272188  -220.407942 351.896700
8  153 1.272188  -224.642460 355.509397
8  154 1.272188  -228.710256 352.318170
8  155 1.272188  -221.008670 351.744300
8  156 1.272188  -221.388917 355.210161
8  157 1.272188  -226.994297 353.882554
9  1 1.272188  22.909350 125.926194
9  2 1.272188  21.472271 128.567456
9  3 1.272188  19.412659 130.702582
9  4 1.272188  12.966366 131.023918
9  5 1.272188  10.767757 131.056286
9  6 1.272188  5.271055 128.812254
9  7 1.272188  -0.050904 124.141917
9  8 1.272188  1.010182 119.689915
9  9 1.272188  -0.344243 114.340987
9  10 1.272188  0.491122 112.441191
9  11 1.272188  2.190317 109.245529
9  12 1.272188  2.778581 103.107700
9  13 1.272188  3.863215 99.116451
9  14 1.272188  6.160720 93.348666
9  15 1.272188  7.407938 88.293460
9  16 1.272188  8.514862 84.404764
9  17 1.272188  11.945715 79.559332
9  18 1.272188  12.040863 74.096242
9  19 1.272188  11.357061 67.478541
9  20 1.272188  10.439605 62.474536
9  21 1.272188  6.350227 59.259462
9  22 1.272188  1.539442 52.663408
9  23 1.272188  -1.409740 51.686014
9  24 1.272188  -8.352103 51.560684
9  25 1.272188  -11.521142 55.171895
9  26 1.272188  -14.750770 59.379885
9  27 1.272188  -21.236227 62.512546
9  28 1.272188  -22.417113 70.045173
9  29 1.272188  -22.081564 76.360239
9  30 1.272188  -20.357681 80.077654
9  31 1.272188  -13.334687 84.396438
9  32 1.272188  -8.925686 84.321668
9  33 1.272188  -4.112377 89.402766
9  34 1.272188  0.942115 90.696829
9  35 1.272188  4.993786 90.214338
9  36 1.272188  11.721095 92.742296
9  37 1.272188  17.891333 93.240788
9  38 1.272188  23.447081 95.570192
9  39 1.272188  28.617855 96.724164
9  40 1.272188  33.855722 97.419843
9  41 1.272188  37.086848 97.430158
9  42 1.272188  43.253810 100.309190
9  43 1.272188  48.591640 100.973919
9  44 1.272188  53.529579 100.939293
9  45 1.272188  59.250605 102.624737
9  46 1.272188  65.934823 101.246331
9  47 1.272188  69.192029 105.210872
9  48 1.272188  77.431373 105.302085
9  49 1.272188  79.877015 106.746573
9  50 1.272188  86.401059 108.718910
9  51 1.272188  90.148600 107.699446
9  52 1.272188  98.127677 111.386884
9  53 1.272188  101.773571 108.354366
9  54 1.272188  106.818441 112.664535
9  55 1.272188  112.525870 110.849221
9  56 1.272188  116.731519 113.533527
9  57 1.272188  121.055878 113.509916
9  58 1.272188  128.469596 115.877051
9  59 1.272188  131.087707 118.475283
9  60 1.272188  135.677187 118.435946
9  61 1.272188  142.146950 122.134919
9  62 1.272188  145.187360 120.011941
9  63 1.272188  150.263612 124.906471
9  64 1.272188  152.949576 127.997562
9  65 1.272188  152.695130 134.278857
9  66 1.272188  148.795234 135.977444
9  67 1.272188  143.976695 136.712114
9  68 1.272188  139.572232 135.098333
9  69 1.272188  137.958499 129.076480
9  70 1.272188  141.131896 125.763131
9  71 1.272188  144.086355 123.665449
9  72 1.272188  147.875345 121.762433
9  73 1.272188  151.919483 124.148556
9  74 1.272188  152.516787 128.560973
9  75 1.272188  152.661811 133.884012
9  76 1.272188  151.018165 136.027850
9  77 1.272188  142.645146 139.226804
9  78 1.272188  141.066928 134.114992
9  79 1.272188  137.185745 130.979780
9  80 1.272188  137.752517 124.967648
9  81 1.272188  143.384267 122.934384
9  82 1.272188  146.691691 123.688277
9  83 1.272188  151.519276 124.864703
9  84 1.272188  152.317946 129.261059
9  85 1.272188  151.547837 135.254055
9  86 1.272188  148.393771 137.397890
9  87 1.272188  142.955449 137.377545
9  88 1.272188  140.314915 132.876847
9  89 1.272188  138.486308 131.052411
9  90 1.272188  140.161150 125.268538
9  91 1.272188  145.482317 124.352006
9  92 1.272188  148.829923 123.054921
9  93 1.272188  153.291348 127.263165
9  94 1.272188  155.811676 130.811698
9  95 1.272188  153.437228 135.192956
9  96 1.272188  153.288617 140.472806
9  97 1.272188  152.689254 148.552771
9  98 1.272188  153.309519 149.721478
9  99 1.272188  151.280240 157.259137
9  100 1.272188  151.566429 160.362929
9  101 1.272188  151.686175 167.008318
9  102 1.272188  151.325048 171.920639
9  103 1.272188  149.458658 178.396290
9  104 1.272188  149.803387 181.080925
9  105 1.272188  148.651779 187.406264
9  106 1.272188  151.226434 194.991035
9  107 1.272188  146.211305 200.403295
9  108 1.272188  150.000774 205.247340
9  109 1.272188  147.457807 208.990409
9  110 1.272188  146.471605 215.874036
9  111 1.272188  148.427748 221.629031
9  112 1.272188  149.485301 225.300596
9  113 1.272188  149.513695 230.480955
9  114 1.272188  147.960932 236.531301
9  115 1.272188  150.953696 241.804662
9  116 1.272188  149.627427 246.911478
9  117 1.272188  151.344542 251.796151
9  118 1.272188  151.689599 258.857874
9  119 1.272188  149.372938 263.054225
9  120 1.272188  149.364690 267.678797
9  121 1.272188  151.345749 276.306675
9  122 1.272188  152.334365 280.192177
9  123 1.272188  154.182041 286.184247
9  124 1.272188  151.632728 291.724688
9  125 1.272188  153.346107 297.128938
9  126 1.272188  151.400485 302.593772
9  127 1.272188  147.101544 305.439353
9  128 1.272188  141.463658 305.561961
9  129 1.272188  137.616696 308.533602
9  130 1.272188  129.889255 304.877727
9  131 1.272188  124.913448 303.388333
9  132 1.272188  121.889564 298.479790
9  133 1.272188  118.678939 294.960525
9  134 1.272188  116.941955 286.776647
9  135 1.272188  118.923251 280.433629
9  136 1.272188  122.220365 278.089703
9  137 1.272188  131.929413 273.704238
9  138 1.272188  136.089840 278.280995
9  139 1.272188  140.263162 278.961967
9  140 1.272188  144.545167 283.599833
9  141 1.272188  145.696497 292.745739
9  142 1.272188  147.623636 298.497655
9  143 1.272188  146.739069 303.875545
9  144 1.272188  148.767561 311.958224
9  145 1.272188  149.182524 318.410901
9  146 1.272188  152.016911 325.529266
9  147 1.272188  156.488364 331.364713
9  148 1.272188  158.404769 335.328484
9  149 1.272188  160.386677 340.605680
9  150 1.272188  165.666420 346.306492
9  151 1.272188  170.518087 351.980068
9  152 1.272188  172.871160 355.709763
9  153 1.272188  174.346037 361.018417
9  154 1.272188  170.682417 368.019245
9  155 1.272188  168.919562 375.548261
9  156 1.272188  160.856089 378.842921
9  157 1.272188  153.654340 380.376504
10  1 1.272188  23.898577 123.611246
10  2 1.272188  25.077412 128.373413
10  3 1.272188  17.981105 132.566526
10  4 1.272188  15.918455 136.094211
10  5 1.272188  12.281505 136.429632
10  6 1.272188  8.271238 133.802567
10  7 1.272188  3.211491 134.217378
10  8 1.272188  0.263870 130.967835
10  9 1.272188  -3.166543 126.592343
10  10 1.272188  -2.695552 122.524947
10  11 1.272188  -3.240172 119.672480
10  12 1.272188  -2.786329 114.483114
10  13 1.272188  -3.764285 110.934614
10  14 1.272188  -2.673964 105.211937
10  15 1.272188  -0.587611 103.880488
10  16 1.272188  0.631073 97.686921
10  17 1.272188  3.176492 94.653645
10  18 1.272188  8.563796 94.942594
10  19 1.272188  12.884072 92.447907
10  20 1.272188  17.366115 94.848810
10  21 1.272188  20.368706 97.732033
10  22 1.272188  20.474413 102.707156
10  23 1.272188  17.336474 106.846450
10  24 1.272188  14.919500 109.059190
10  25 1.272188  9.684136 105.950895
10  26 1.272188  7.090070 102.096768
10  27 1.272188  6.358831 98.574282
10  28 1.272188  10.259000 92.379120
10  29 1.272188  11.012999 88.537859
10  30 1.272188  16.621589 86.496030
10  31 1.272188  21.545799 83.533932
10  32 1.272188  25.285291 80.827074
10  33 1.272188  30.967930 80.512210
10  34 1.272188  35.601765 77.255064
10  35 1.272188  42.611407 78.471743
10  36 1.272188  47.168948 76.690836
10  37 1.272188  50.285125 76.475958
10  38 1.272188  58.057890 77.121076
10  39 1.272188  61.196092 75.642646
10  40 1.272188  68.215066 72.611783
10  41 1.272188  74.658494 72.810302
10  42 1.272188  77.689943 72.091663
10  43 1.272188  83.000592 69.801430
10  44 1.272188  86.991499 71.069654
10  45 1.272188  91.970437 67.412235
10  46 1.272188  95.010716 67.069493
10  47 1.272188  101.906667 67.169660
10  48 1.272188  108.612186 66.098135
10  49 1.272188  111.159343 64.687431
10  50 1.272188  117.674162 64.624065
10  51 1.272188  120.807779 59.420447
10  52 1.272188  127.080279 63.559973
10  53 1.272188  132.398057 60.740353
10  54 1.272188  138.215640 62.202345
10  55 1.272188  142.992246 61.646406
10  56 1.272188  146.572402 59.737343
10  57 1.272188  151.181783 58.933753
10  58 1.272188  156.820657 57.509185
10  59 1.272188  161.831053 56.599987
10  60 1.272188  167.385439 56.626154
10  61 1.272188  172.007556 55.062687
10  62 1.272188  175.353456 55.113538
10  63 1.272188  182.463375 53.457607
10  64 1.272188  184.728771 59.971414
10  65 1.272188  188.433151 63.134531
10  66 1.272188  185.255750 66.723357
10  67 1.272188  180.626591 69.179671
10  68 1.272188  175.247166 69.293612
10  69 1.272188  172.329574 66.075039
10  70 1.272188  174.387415 61.538618
10  71 1.272188  172.911586 57.355329
10  72 1.272188  177.926768 55.938012
10  73 1.272188  183.705391 55.622527
10  74 1.272188  187.908486 59.619849
10  75 1.272188  189.177613 64.849131
10  76 1.272188  186.766951 70.371384
10  77 1.272188  181.030801 71.182588
10  78 1.272188  174.561844 69.703313
10  79 1.272188  169.574403 65.337339
10  80 1.272188  171.293057 60.099232
10  81 1.272188  174.399863 55.071454
10  82 1.272188  178.275724 52.962582
10  83 1.272188  184.816153 54.892559
10  84 1.272188  189.214477 59.193250
10  85 1.272188  189.456774 63.039634
10  86 1.272188  186.712084 70.614185
10  87 1.272188  182.879001 70.962195
10  88 1.272188  176.416465 70.004612
10  89 1.272188  173.179273 65.009400
10  90 1.272188  171.964068 58.553681
10  91 1.272188  175.768837 54.918443
10  92 1.272188  177.992305 51.247778
10  93 1.272188  185.787039 54.063771
10  94 1.272188  189.900981 60.211392
10  95 1.272188  189.955467 63.614519
10  96 1.272188  192.984831 69.991347
10  97 1.272188  195.684905 75.297118
10  98 1.272188  193.828084 81.462916
10  99 1.272188  196.732748 82.257985
10  100 1.272188  198.491084 91.680441
10  101 1.272188  199.936547 96.591693
10  102 1.272188  200.418017 102.642692
10  103 1.272188  202.317379 107.106679
10  104 1.272188  206.985203 114.336173
10  105 1.272188  205.856289 120.249027
10  106 1.272188  210.191744 125.975436
10  107 1.272188  212.133201 128.897981
10  108 1.272188  216.018973 136.467084
10  109 1.272188  218.677170 140.626576
10  110 1.272188  220.977949 146.968175
10  111 1.272188  225.518055 150.299495
10  112 1.272188  226.732088 158.128554
10  113 1.272188  229.364569 163.335998
10  114 1.272188  234.271227 168.091552
10  115 1.272188  234.969813 174.445259
10  116 1.272188  237.493556 179.340797
10  117 1.272188  243.485430 184.294686
10  118 1.272188  244.133503 191.452277
10  119 1.272188  246.253618 194.887810
10  120 1.272188  249.316663 199.916948
10  121 1.272188  253.263115 205.966787
10  122 1.272188  256.036348 208.379036
10  123 1.272188  258.208461 213.092629
10  124 1.272188  260.998053 219.166774
10  125 1.272188  264.468313 223.149600
10  126 1.272188  267.058170 229.871843
10  127 1.272188  265.045521 233.000365
10  128 1.272188  259.707428 238.680742
10  129 1.272188  256.906294 240.624718
10  130 1.272188  249.665713 239.368226
10  131 1.272188  246.233033 238.097135
10  132 1.272188  244.182366 233.768914
10  133 1.272188  241.906496 230.631138
10  134 1.272188  245.246938 221.676548
10  135 1.272188  249.664524 220.876397
10  136 1.272188  252.655360 222.065475
10  137 1.272188  258.244264 223.919488
10  138 1.272188  259.022115 229.932275
10  139 1.272188  254.987735 230.766678
10  140 1.272188  250.150941 232.098278
10  141 1.272188  247.455894 228.478893
10  142 1.272188  245.349637 224.525065
10  143 1.272188  250.347972 221.559372
10  144 1.272188  253.694766 220.217350
10  145 1.272188  258.773503 222.380911
10  146 1.272188  258.968632 229.554906
10  147 1.272188  258.078184 232.753618
10  148 1.272188  253.007231 237.744837
10  149 1.272188  249.835780 237.700046
10  150 1.272188  242.896432 236.278386
10  151 1.272188  236.499833 232.640738
10  152 1.272188  233.890259 225.347410
10  153 1.272188  234.744957 221.214897
10  154 1.272188  234.521351 217.701488
10  155 1.272188  238.319977 211.512683
10  156 1.272188  242.813784 209.462844
10  157 1.272188  248.682616 210.158184
