nmc=10
nz=2
kmax=105
run number  , frame , sample interval , measurements:
1  1 1.899769  25.604016 127.848867
1  2 1.899769  24.557656 135.110584
1  3 1.899769  23.612444 142.422868
1  4 1.899769  24.847798 149.333858
1  5 1.899769  23.142262 158.750742
1  6 1.899769  23.155240 165.297376
1  7 1.899769  23.117801 172.274830
1  8 1.899769  21.997460 178.401107
1  9 1.899769  22.698728 188.160064
1  10 1.899769  21.216942 196.053803
1  11 1.899769  21.040842 205.296843
1  12 1.899769  21.309973 212.117293
1  13 1.899769  21.970412 219.279589
1  14 1.899769  20.670205 226.502883
1  15 1.899769  18.350431 234.868225
1  16 1.899769  19.035302 240.206136
1  17 1.899769  20.792252 245.430236
1  18 1.899769  19.986413 253.406276
1  19 1.899769  23.182496 257.320467
1  20 1.899769  20.832142 261.829954
1  21 1.899769  22.444334 270.211953
1  22 1.899769  24.792450 275.302288
1  23 1.899769  24.381907 281.939934
1  24 1.899769  25.802052 287.510659
1  25 1.899769  25.388106 292.137248
1  26 1.899769  24.733719 299.367807
1  27 1.899769  24.614080 306.067714
1  28 1.899769  23.379491 311.174378
1  29 1.899769  24.842962 315.932185
1  30 1.899769  23.424811 324.053841
1  31 1.899769  20.616708 332.481876
1  32 1.899769  20.146247 337.776187
1  33 1.899769  19.237305 344.075482
1  34 1.899769  15.742318 351.648467
1  35 1.899769  16.157332 357.283860
1  36 1.899769  11.587150 364.951015
1  37 1.899769  13.251223 369.959108
1  38 1.899769  11.871909 376.825491
1  39 1.899769  11.403497 383.428887
1  40 1.899769  10.104701 391.055691
1  41 1.899769  7.481140 396.426849
1  42 1.899769  6.986548 403.463848
1  43 1.899769  2.618153 409.516772
1  44 1.899769  -3.039940 416.187758
1  45 1.899769  -11.444126 421.727456
1  46 1.899769  -14.289713 428.084768
1  47 1.899769  -16.007060 435.575000
1  48 1.899769  -15.053035 443.847552
1  49 1.899769  -8.375613 449.660212
1  50 1.899769  -0.301318 446.258950
1  51 1.899769  4.667654 437.196780
1  52 1.899769  1.540169 430.161094
1  53 1.899769  -7.602218 425.388534
1  54 1.899769  -13.928837 423.686119
1  55 1.899769  -22.240952 428.568269
1  56 1.899769  -18.417222 436.811092
1  57 1.899769  -12.976363 435.036961
1  58 1.899769  -12.344927 428.140204
1  59 1.899769  -18.664738 431.767261
1  60 1.899769  -11.807827 432.861378
1  61 1.899769  -15.657552 430.548822
1  62 1.899769  -15.195207 433.104297
1  63 1.899769  -13.782772 427.966847
1  64 1.899769  -16.889386 421.119388
1  65 1.899769  -11.183667 415.237560
1  66 1.899769  -3.283028 420.456362
1  67 1.899769  -7.805318 427.542287
1  68 1.899769  -13.365992 427.455134
1  69 1.899769  -15.944576 418.139499
1  70 1.899769  -6.560056 416.049971
1  71 1.899769  -3.568059 424.852716
1  72 1.899769  -10.386684 430.975025
1  73 1.899769  -18.369381 425.729908
1  74 1.899769  -14.464158 417.433033
1  75 1.899769  -6.992648 418.914687
1  76 1.899769  -3.862620 427.985170
1  77 1.899769  -13.713361 429.650776
1  78 1.899769  -18.394599 421.439611
1  79 1.899769  -10.295986 414.965230
1  80 1.899769  -3.960581 422.380301
1  81 1.899769  -7.460918 431.397209
1  82 1.899769  -16.309397 430.815211
1  83 1.899769  -15.931914 420.762789
1  84 1.899769  -8.096780 416.833739
1  85 1.899769  -0.248189 420.928575
1  86 1.899769  9.073369 421.569991
1  87 1.899769  18.363208 425.337745
1  88 1.899769  28.748355 426.012260
1  89 1.899769  36.786497 432.401439
1  90 1.899769  48.737334 434.572590
1  91 1.899769  59.237554 436.586437
1  92 1.899769  67.658997 437.303867
1  93 1.899769  78.347786 439.653686
1  94 1.899769  89.422966 442.112121
1  95 1.899769  99.714288 443.690949
1  96 1.899769  107.821240 443.603871
1  97 1.899769  117.534139 446.465922
1  98 1.899769  128.044757 446.670325
1  99 1.899769  138.863737 449.963222
1  100 1.899769  149.291235 450.516535
1  101 1.899769  160.145258 454.417369
1  102 1.899769  168.659513 456.796848
1  103 1.899769  179.071161 456.610730
1  104 1.899769  189.308696 460.119244
1  105 1.899769  199.783116 461.928201
2  1 1.899769  24.678694 126.934445
2  2 1.899769  25.089155 137.263820
2  3 1.899769  24.685979 142.762385
2  4 1.899769  27.133327 151.942830
2  5 1.899769  27.471527 159.331357
2  6 1.899769  29.708957 165.641349
2  7 1.899769  31.706115 174.917961
2  8 1.899769  32.680264 182.856545
2  9 1.899769  32.174393 191.256545
2  10 1.899769  36.889769 193.012853
2  11 1.899769  37.964951 200.147549
2  12 1.899769  41.774236 206.726428
2  13 1.899769  44.024285 213.880171
2  14 1.899769  47.468263 218.847472
2  15 1.899769  49.560408 224.971054
2  16 1.899769  53.956277 230.089554
2  17 1.899769  54.419589 234.269042
2  18 1.899769  58.130790 241.777613
2  19 1.899769  60.486877 247.757366
2  20 1.899769  64.278741 252.872360
2  21 1.899769  69.785560 259.073043
2  22 1.899769  73.264363 264.363796
2  23 1.899769  75.208060 270.493539
2  24 1.899769  79.735303 275.457014
2  25 1.899769  86.170257 283.977227
2  26 1.899769  88.550514 287.626451
2  27 1.899769  93.425868 294.817235
2  28 1.899769  99.714441 301.470082
2  29 1.899769  100.716116 308.522982
2  30 1.899769  105.233038 315.531194
2  31 1.899769  105.542376 322.297209
2  32 1.899769  108.555754 330.537026
2  33 1.899769  112.513947 336.129672
2  34 1.899769  112.363682 343.864879
2  35 1.899769  117.021033 351.772071
2  36 1.899769  119.463031 356.921794
2  37 1.899769  120.382975 365.789468
2  38 1.899769  123.063785 370.371667
2  39 1.899769  128.502801 381.756509
2  40 1.899769  130.374286 386.579961
2  41 1.899769  134.807629 393.900632
2  42 1.899769  136.931723 399.798048
2  43 1.899769  139.987628 406.897384
2  44 1.899769  138.101616 413.267816
2  45 1.899769  135.307879 417.211996
2  46 1.899769  135.742321 422.154041
2  47 1.899769  136.774777 429.499926
2  48 1.899769  144.411372 432.290094
2  49 1.899769  147.605517 425.114536
2  50 1.899769  145.298424 424.079787
2  51 1.899769  142.079604 428.082899
2  52 1.899769  144.661783 428.324905
2  53 1.899769  145.262322 423.821310
2  54 1.899769  140.869142 424.407186
2  55 1.899769  141.478762 428.027014
2  56 1.899769  147.682770 426.752079
2  57 1.899769  149.486604 423.739672
2  58 1.899769  143.740162 421.854538
2  59 1.899769  141.788962 424.010875
2  60 1.899769  144.013718 427.423676
2  61 1.899769  147.563425 420.731349
2  62 1.899769  141.970648 424.146966
2  63 1.899769  146.002235 424.514210
2  64 1.899769  148.550450 429.104455
2  65 1.899769  146.622481 433.553805
2  66 1.899769  143.441057 432.394109
2  67 1.899769  140.888356 429.522511
2  68 1.899769  144.591664 426.870967
2  69 1.899769  150.801644 428.445448
2  70 1.899769  146.041298 432.807345
2  71 1.899769  141.386985 432.127809
2  72 1.899769  143.815704 427.662763
2  73 1.899769  148.081961 426.409392
2  74 1.899769  148.552179 431.093972
2  75 1.899769  144.073538 435.770394
2  76 1.899769  142.233028 432.569215
2  77 1.899769  145.169019 426.594419
2  78 1.899769  151.695774 429.224423
2  79 1.899769  148.847441 434.726518
2  80 1.899769  144.227074 436.082801
2  81 1.899769  135.430695 430.175557
2  82 1.899769  147.818174 424.430593
2  83 1.899769  153.764662 429.379051
2  84 1.899769  150.132582 434.347790
2  85 1.899769  140.534022 437.517702
2  86 1.899769  134.309038 442.288276
2  87 1.899769  125.978126 445.300311
2  88 1.899769  121.022694 446.651011
2  89 1.899769  115.275799 448.558091
2  90 1.899769  108.145558 451.462860
2  91 1.899769  101.373359 455.490609
2  92 1.899769  94.617324 457.931582
2  93 1.899769  89.019228 457.845258
2  94 1.899769  82.214753 460.089887
2  95 1.899769  72.978410 464.357524
2  96 1.899769  68.077716 466.290025
2  97 1.899769  62.237732 467.668592
2  98 1.899769  57.451518 470.635187
2  99 1.899769  51.053132 472.023793
2  100 1.899769  45.548393 473.948431
2  101 1.899769  42.362305 474.829725
2  102 1.899769  36.024181 477.909124
2  103 1.899769  31.476363 480.130113
2  104 1.899769  25.671945 482.537835
2  105 1.899769  21.709512 485.517649
3  1 1.899769  24.708290 127.768828
3  2 1.899769  23.592718 136.489310
3  3 1.899769  25.882488 144.028332
3  4 1.899769  27.222804 150.998161
3  5 1.899769  27.393178 159.428885
3  6 1.899769  28.624555 166.796129
3  7 1.899769  29.011122 175.618549
3  8 1.899769  32.385282 181.407532
3  9 1.899769  32.878136 191.213840
3  10 1.899769  36.026219 198.846320
3  11 1.899769  38.644178 208.474810
3  12 1.899769  39.480915 216.692610
3  13 1.899769  41.355326 224.677807
3  14 1.899769  42.997503 234.610166
3  15 1.899769  42.548998 242.583037
3  16 1.899769  43.098006 249.520562
3  17 1.899769  45.066153 259.032545
3  18 1.899769  44.686334 267.316082
3  19 1.899769  47.445529 278.558338
3  20 1.899769  48.002614 286.411518
3  21 1.899769  49.325494 294.152347
3  22 1.899769  50.863901 304.435132
3  23 1.899769  51.919927 312.521687
3  24 1.899769  53.320689 320.568171
3  25 1.899769  55.259792 329.046267
3  26 1.899769  56.430550 339.310310
3  27 1.899769  56.811575 348.394773
3  28 1.899769  57.134526 358.140472
3  29 1.899769  59.645394 364.496721
3  30 1.899769  59.976408 369.692895
3  31 1.899769  57.799753 379.985108
3  32 1.899769  60.491964 389.008315
3  33 1.899769  60.513331 393.829190
3  34 1.899769  61.460037 401.050614
3  35 1.899769  63.443173 410.231270
3  36 1.899769  62.799154 418.931355
3  37 1.899769  62.158885 427.589668
3  38 1.899769  63.584425 436.554268
3  39 1.899769  64.327696 445.650287
3  40 1.899769  65.288324 456.919424
3  41 1.899769  65.477500 464.400619
3  42 1.899769  68.209476 475.820072
3  43 1.899769  64.875875 483.499915
3  44 1.899769  60.828705 488.753128
3  45 1.899769  51.831398 492.473995
3  46 1.899769  42.538317 493.003539
3  47 1.899769  36.751944 483.703608
3  48 1.899769  38.862560 473.499798
3  49 1.899769  42.323555 467.735749
3  50 1.899769  52.319738 466.043822
3  51 1.899769  58.803635 472.439189
3  52 1.899769  51.088052 477.338509
3  53 1.899769  51.843807 469.184318
3  54 1.899769  56.282571 476.989836
3  55 1.899769  51.153657 472.949733
3  56 1.899769  56.390701 475.166465
3  57 1.899769  52.870823 470.597947
3  58 1.899769  53.130823 478.377065
3  59 1.899769  54.973418 471.009165
3  60 1.899769  50.900782 475.520565
3  61 1.899769  57.022999 473.443675
3  62 1.899769  52.447326 471.880071
3  63 1.899769  51.826941 477.702915
3  64 1.899769  48.852890 467.736005
3  65 1.899769  57.383174 461.500748
3  66 1.899769  67.447747 468.764579
3  67 1.899769  61.725435 477.841979
3  68 1.899769  49.283225 472.706735
3  69 1.899769  52.667791 463.487836
3  70 1.899769  61.591437 460.512576
3  71 1.899769  67.056709 470.711774
3  72 1.899769  56.848657 476.508592
3  73 1.899769  49.548446 469.376590
3  74 1.899769  53.729418 459.880384
3  75 1.899769  65.520881 464.347544
3  76 1.899769  64.953051 473.551960
3  77 1.899769  55.438604 477.599408
3  78 1.899769  50.631571 465.725754
3  79 1.899769  58.280635 459.280498
3  80 1.899769  66.095642 465.331129
3  81 1.899769  63.107580 474.968616
3  82 1.899769  49.788908 474.919108
3  83 1.899769  48.861569 463.519738
3  84 1.899769  59.285534 458.508001
3  85 1.899769  70.788250 462.032387
3  86 1.899769  82.596375 464.129168
3  87 1.899769  96.581730 466.845936
3  88 1.899769  108.658924 467.944389
3  89 1.899769  117.343871 471.554305
3  90 1.899769  131.708978 474.279258
3  91 1.899769  141.656236 477.752545
3  92 1.899769  154.256307 480.055957
3  93 1.899769  162.795749 481.437705
3  94 1.899769  174.617661 482.781321
3  95 1.899769  184.215160 483.754569
3  96 1.899769  194.308281 483.613765
3  97 1.899769  206.196052 484.946090
3  98 1.899769  214.961548 487.054280
3  99 1.899769  224.234317 486.059282
3  100 1.899769  234.166165 488.500690
3  101 1.899769  244.139598 485.838466
3  102 1.899769  253.473589 486.330028
3  103 1.899769  261.941252 486.661562
3  104 1.899769  273.716712 487.413717
3  105 1.899769  281.736348 486.509989
4  1 1.899769  24.883566 127.021918
4  2 1.899769  24.743984 136.193590
4  3 1.899769  25.659019 140.603244
4  4 1.899769  25.308550 150.744268
4  5 1.899769  25.268846 156.406867
4  6 1.899769  24.800521 165.758290
4  7 1.899769  23.057809 170.796042
4  8 1.899769  22.384854 177.623294
4  9 1.899769  20.164320 185.896019
4  10 1.899769  19.865019 190.645920
4  11 1.899769  16.492028 200.129196
4  12 1.899769  17.722022 204.773859
4  13 1.899769  17.980727 212.915374
4  14 1.899769  17.224158 218.501295
4  15 1.899769  18.030865 224.708297
4  16 1.899769  16.599616 231.282109
4  17 1.899769  16.199506 235.279346
4  18 1.899769  16.506366 241.768208
4  19 1.899769  15.517527 247.544947
4  20 1.899769  14.260769 252.598309
4  21 1.899769  13.683324 259.042049
4  22 1.899769  12.674773 262.815614
4  23 1.899769  12.826541 269.070951
4  24 1.899769  10.490670 273.622348
4  25 1.899769  13.291770 279.455759
4  26 1.899769  10.301839 285.326789
4  27 1.899769  9.167010 291.327476
4  28 1.899769  6.686419 297.749718
4  29 1.899769  6.813680 304.881862
4  30 1.899769  2.758782 312.762816
4  31 1.899769  3.046497 315.814600
4  32 1.899769  -0.981194 320.173050
4  33 1.899769  -3.116614 328.588871
4  34 1.899769  0.533452 331.797736
4  35 1.899769  -0.421236 339.144012
4  36 1.899769  -1.863495 344.976765
4  37 1.899769  -1.501193 347.376157
4  38 1.899769  -0.635004 354.848579
4  39 1.899769  1.462245 362.948737
4  40 1.899769  0.124975 369.572667
4  41 1.899769  -0.287240 374.642234
4  42 1.899769  1.445133 384.000531
4  43 1.899769  -1.529302 389.560227
4  44 1.899769  -6.318905 394.680013
4  45 1.899769  -13.524712 392.987021
4  46 1.899769  -20.914434 388.774773
4  47 1.899769  -21.922999 378.664662
4  48 1.899769  -21.792261 371.485148
4  49 1.899769  -20.686925 365.207072
4  50 1.899769  -26.441311 355.028778
4  51 1.899769  -32.618006 352.261228
4  52 1.899769  -40.675135 354.906213
4  53 1.899769  -44.431625 360.705621
4  54 1.899769  -47.943777 367.246731
4  55 1.899769  -43.787873 373.078563
4  56 1.899769  -36.795858 374.650427
4  57 1.899769  -32.181494 368.469860
4  58 1.899769  -33.511357 359.255428
4  59 1.899769  -40.252826 354.775294
4  60 1.899769  -46.684993 349.555194
4  61 1.899769  -54.785353 343.199186
4  62 1.899769  -55.090335 336.894550
4  63 1.899769  -57.660868 329.770949
4  64 1.899769  -53.474751 323.525987
4  65 1.899769  -44.938545 326.635229
4  66 1.899769  -45.719048 332.846932
4  67 1.899769  -53.337917 332.334955
4  68 1.899769  -54.666891 326.111758
4  69 1.899769  -50.446532 319.825385
4  70 1.899769  -43.600635 325.916116
4  71 1.899769  -49.343838 333.456318
4  72 1.899769  -56.389801 331.153061
4  73 1.899769  -55.040183 323.639568
4  74 1.899769  -47.760332 325.073074
4  75 1.899769  -46.051386 329.425545
4  76 1.899769  -52.126448 334.455039
4  77 1.899769  -56.547602 329.027359
4  78 1.899769  -52.681852 321.632302
4  79 1.899769  -46.265365 322.901406
4  80 1.899769  -47.185566 330.933841
4  81 1.899769  -54.197498 333.008022
4  82 1.899769  -55.547618 326.081196
4  83 1.899769  -48.395016 322.618601
4  84 1.899769  -45.661310 328.118454
4  85 1.899769  -43.975354 336.115691
4  86 1.899769  -43.905797 341.607322
4  87 1.899769  -42.797663 348.815314
4  88 1.899769  -43.935857 353.305970
4  89 1.899769  -44.797444 362.229075
4  90 1.899769  -38.823388 367.795864
4  91 1.899769  -39.882333 376.462451
4  92 1.899769  -39.361084 383.842430
4  93 1.899769  -36.692874 391.921364
4  94 1.899769  -35.679474 398.786850
4  95 1.899769  -35.331196 405.398886
4  96 1.899769  -32.001754 412.394599
4  97 1.899769  -28.357197 418.259192
4  98 1.899769  -26.356790 426.547572
4  99 1.899769  -26.110625 435.534101
4  100 1.899769  -21.837987 439.905249
4  101 1.899769  -21.186084 445.546614
4  102 1.899769  -16.871379 452.514766
4  103 1.899769  -15.618190 460.887047
4  104 1.899769  -13.046275 467.506765
4  105 1.899769  -8.895263 473.455026
5  1 1.899769  26.741312 127.601738
5  2 1.899769  24.884466 133.495381
5  3 1.899769  25.454891 141.751837
5  4 1.899769  24.092828 149.563940
5  5 1.899769  24.294874 157.147666
5  6 1.899769  24.999877 163.000708
5  7 1.899769  25.749824 171.932845
5  8 1.899769  26.435394 180.662065
5  9 1.899769  28.557343 189.723650
5  10 1.899769  30.615517 198.647348
5  11 1.899769  30.259654 209.757173
5  12 1.899769  33.272281 216.375915
5  13 1.899769  35.154039 225.196725
5  14 1.899769  36.069527 235.941870
5  15 1.899769  37.585347 246.176645
5  16 1.899769  39.671580 254.427988
5  17 1.899769  42.251136 266.420758
5  18 1.899769  45.014791 276.176097
5  19 1.899769  47.824668 286.127644
5  20 1.899769  48.935499 295.979940
5  21 1.899769  50.804257 304.457233
5  22 1.899769  53.754825 316.195781
5  23 1.899769  55.571005 327.534988
5  24 1.899769  56.588883 337.065269
5  25 1.899769  57.374110 346.468792
5  26 1.899769  59.894114 356.037733
5  27 1.899769  63.088825 370.332183
5  28 1.899769  64.765962 379.638457
5  29 1.899769  64.366632 392.516482
5  30 1.899769  66.174889 403.621252
5  31 1.899769  67.673036 414.969864
5  32 1.899769  69.021899 427.436306
5  33 1.899769  72.247339 439.178340
5  34 1.899769  73.290534 449.638553
5  35 1.899769  75.733734 463.135894
5  36 1.899769  78.231467 474.583523
5  37 1.899769  79.565706 485.531118
5  38 1.899769  81.520072 498.885195
5  39 1.899769  84.581471 511.577902
5  40 1.899769  85.926496 525.486279
5  41 1.899769  86.431039 537.295097
5  42 1.899769  91.423829 549.632099
5  43 1.899769  88.859237 561.552929
5  44 1.899769  81.357324 574.294894
5  45 1.899769  69.878534 581.085471
5  46 1.899769  59.636880 588.532567
5  47 1.899769  44.953327 592.231899
5  48 1.899769  34.749742 593.797948
5  49 1.899769  18.892214 589.633679
5  50 1.899769  14.373402 577.872263
5  51 1.899769  18.595309 564.022095
5  52 1.899769  31.294086 561.379875
5  53 1.899769  41.699804 573.111821
5  54 1.899769  34.906282 585.814783
5  55 1.899769  22.340412 589.809321
5  56 1.899769  6.679291 588.935168
5  57 1.899769  -2.263411 578.304868
5  58 1.899769  -12.660347 566.672100
5  59 1.899769  -22.277409 555.233843
5  60 1.899769  -33.029318 543.977152
5  61 1.899769  -34.143019 526.012054
5  62 1.899769  -28.687934 513.823825
5  63 1.899769  -13.887014 506.199139
5  64 1.899769  -2.832649 517.432986
5  65 1.899769  -8.194588 528.521790
5  66 1.899769  -24.883698 527.449715
5  67 1.899769  -25.628648 511.820896
5  68 1.899769  -9.889186 508.230461
5  69 1.899769  -1.934096 522.045358
5  70 1.899769  -11.719583 531.746862
5  71 1.899769  -23.736226 524.505811
5  72 1.899769  -23.331991 509.724543
5  73 1.899769  -7.444434 511.851892
5  74 1.899769  -3.598148 523.181127
5  75 1.899769  -17.885050 532.606663
5  76 1.899769  -26.559819 522.196549
5  77 1.899769  -18.646556 509.731857
5  78 1.899769  -6.566918 514.351518
5  79 1.899769  -10.087467 529.435977
5  80 1.899769  -23.173301 529.956600
5  81 1.899769  -26.897645 514.927383
5  82 1.899769  -13.654169 508.804733
5  83 1.899769  -4.272447 518.474435
5  84 1.899769  -12.545714 530.326147
5  85 1.899769  -24.908430 536.049314
5  86 1.899769  -38.420840 543.670746
5  87 1.899769  -52.930625 549.567586
5  88 1.899769  -67.314813 554.169561
5  89 1.899769  -80.149376 558.672086
5  90 1.899769  -94.264518 565.662756
5  91 1.899769  -107.982909 569.669515
5  92 1.899769  -120.765815 574.733267
5  93 1.899769  -133.419700 580.523474
5  94 1.899769  -151.148901 586.520354
5  95 1.899769  -160.663376 593.407471
5  96 1.899769  -176.382508 596.240232
5  97 1.899769  -188.680835 598.793258
5  98 1.899769  -202.161389 602.264748
5  99 1.899769  -216.246717 606.653083
5  100 1.899769  -228.774956 610.437466
5  101 1.899769  -244.122859 612.216454
5  102 1.899769  -256.589051 620.081438
5  103 1.899769  -272.943502 624.865553
5  104 1.899769  -290.141578 629.017053
5  105 1.899769  -301.981273 633.815044
6  1 1.899769  24.467377 128.206278
6  2 1.899769  25.690769 135.800058
6  3 1.899769  23.986889 141.846160
6  4 1.899769  25.491254 149.408591
6  5 1.899769  21.866605 158.059974
6  6 1.899769  19.027504 165.021099
6  7 1.899769  18.971711 171.118506
6  8 1.899769  19.180201 179.585191
6  9 1.899769  16.362738 187.064981
6  10 1.899769  18.569306 193.760044
6  11 1.899769  16.438116 197.765272
6  12 1.899769  13.097500 205.077363
6  13 1.899769  12.343187 209.681752
6  14 1.899769  12.593322 216.215044
6  15 1.899769  9.399459 220.368190
6  16 1.899769  10.954015 227.919819
6  17 1.899769  8.054929 233.663667
6  18 1.899769  8.502698 239.441621
6  19 1.899769  6.037978 247.345684
6  20 1.899769  7.021807 251.631192
6  21 1.899769  4.454550 256.724183
6  22 1.899769  2.237265 262.748618
6  23 1.899769  -1.042116 269.742550
6  24 1.899769  -0.135595 273.822346
6  25 1.899769  -0.476644 281.971952
6  26 1.899769  -0.992765 284.684314
6  27 1.899769  -5.388331 292.795258
6  28 1.899769  -5.936060 297.480132
6  29 1.899769  -4.268969 301.681293
6  30 1.899769  -6.105869 307.448523
6  31 1.899769  -9.025193 309.121161
6  32 1.899769  -9.213724 313.569515
6  33 1.899769  -8.681035 317.132268
6  34 1.899769  -10.623140 321.473515
6  35 1.899769  -11.715918 324.913037
6  36 1.899769  -14.000160 328.303673
6  37 1.899769  -16.620416 331.430893
6  38 1.899769  -19.118228 335.468874
6  39 1.899769  -21.067942 338.097607
6  40 1.899769  -22.509213 340.146862
6  41 1.899769  -23.365323 343.440203
6  42 1.899769  -24.457273 346.624215
6  43 1.899769  -27.540809 346.968872
6  44 1.899769  -29.254594 347.157070
6  45 1.899769  -29.118551 344.922876
6  46 1.899769  -30.140819 344.197849
6  47 1.899769  -29.347618 342.860445
6  48 1.899769  -29.002813 338.382007
6  49 1.899769  -24.825756 337.517632
6  50 1.899769  -23.808678 339.750688
6  51 1.899769  -21.317102 341.002201
6  52 1.899769  -23.775153 344.297563
6  53 1.899769  -24.926685 344.319373
6  54 1.899769  -27.441500 339.984749
6  55 1.899769  -26.229061 339.568531
6  56 1.899769  -26.207568 339.342106
6  57 1.899769  -26.832597 336.026628
6  58 1.899769  -25.209199 337.633112
6  59 1.899769  -24.952087 336.361641
6  60 1.899769  -24.860496 337.635410
6  61 1.899769  -24.338369 340.431601
6  62 1.899769  -23.609053 339.696501
6  63 1.899769  -24.559483 341.222481
6  64 1.899769  -22.413800 341.796755
6  65 1.899769  -24.482464 341.331455
6  66 1.899769  -26.226476 341.321541
6  67 1.899769  -25.480196 341.481820
6  68 1.899769  -22.083064 341.565572
6  69 1.899769  -23.454108 342.159487
6  70 1.899769  -23.724051 344.273224
6  71 1.899769  -24.686488 340.882867
6  72 1.899769  -24.245598 342.508061
6  73 1.899769  -24.364909 342.186122
6  74 1.899769  -25.592908 341.814469
6  75 1.899769  -25.462763 342.380011
6  76 1.899769  -26.043456 341.768823
6  77 1.899769  -23.030394 340.759555
6  78 1.899769  -24.503639 342.971195
6  79 1.899769  -26.327687 340.993663
6  80 1.899769  -24.418520 340.845861
6  81 1.899769  -23.468410 342.749932
6  82 1.899769  -23.907779 342.125099
6  83 1.899769  -24.941376 342.590756
6  84 1.899769  -24.313807 343.140203
6  85 1.899769  -22.305316 338.721146
6  86 1.899769  -22.352512 339.033813
6  87 1.899769  -22.632500 338.696088
6  88 1.899769  -21.621300 336.958356
6  89 1.899769  -23.075140 334.847053
6  90 1.899769  -20.315333 336.532507
6  91 1.899769  -19.738215 334.645558
6  92 1.899769  -17.362516 335.955118
6  93 1.899769  -17.678629 332.859906
6  94 1.899769  -15.671882 333.669979
6  95 1.899769  -12.787857 334.291405
6  96 1.899769  -11.079598 334.321412
6  97 1.899769  -8.945144 333.375251
6  98 1.899769  -7.006263 333.498953
6  99 1.899769  -2.278151 333.568990
6  100 1.899769  0.006809 334.405801
6  101 1.899769  5.309376 334.945278
6  102 1.899769  5.278939 336.732302
6  103 1.899769  7.769420 339.377434
6  104 1.899769  7.923206 340.493531
6  105 1.899769  12.580105 341.701247
7  1 1.899769  23.785836 128.026103
7  2 1.899769  25.482788 134.953907
7  3 1.899769  26.251348 142.323092
7  4 1.899769  26.186024 149.665235
7  5 1.899769  26.714688 158.575146
7  6 1.899769  27.034659 165.878619
7  7 1.899769  30.667377 173.334937
7  8 1.899769  31.093707 183.667528
7  9 1.899769  27.835637 189.887223
7  10 1.899769  29.575121 199.862404
7  11 1.899769  28.629016 206.556557
7  12 1.899769  29.296079 215.956039
7  13 1.899769  29.221851 224.431666
7  14 1.899769  27.028613 233.796571
7  15 1.899769  26.890382 244.364007
7  16 1.899769  27.668459 252.197287
7  17 1.899769  26.351592 260.320411
7  18 1.899769  26.118248 268.481074
7  19 1.899769  25.155001 277.170529
7  20 1.899769  25.502786 287.564906
7  21 1.899769  25.378585 295.600343
7  22 1.899769  23.782602 305.946178
7  23 1.899769  27.297709 314.328597
7  24 1.899769  25.431132 325.520091
7  25 1.899769  24.944548 333.254870
7  26 1.899769  24.476025 346.368360
7  27 1.899769  24.052739 355.302596
7  28 1.899769  23.881800 366.937069
7  29 1.899769  22.543470 375.971494
7  30 1.899769  24.756110 388.363167
7  31 1.899769  24.832221 400.079717
7  32 1.899769  26.008448 408.113382
7  33 1.899769  22.327885 420.352040
7  34 1.899769  24.009037 428.084942
7  35 1.899769  25.304386 437.838343
7  36 1.899769  23.297385 449.900657
7  37 1.899769  26.578360 463.481394
7  38 1.899769  23.286189 469.575979
7  39 1.899769  22.895340 482.858826
7  40 1.899769  26.051589 490.720873
7  41 1.899769  24.943416 501.793225
7  42 1.899769  25.350555 511.327663
7  43 1.899769  24.298578 521.886543
7  44 1.899769  15.566972 527.900538
7  45 1.899769  9.383018 519.661901
7  46 1.899769  14.610901 513.984727
7  47 1.899769  17.072914 520.358118
7  48 1.899769  9.348607 517.809615
7  49 1.899769  16.760672 515.351199
7  50 1.899769  21.888981 524.515565
7  51 1.899769  8.216308 528.566386
7  52 1.899769  2.491187 520.580058
7  53 1.899769  9.114391 512.431728
7  54 1.899769  18.308542 516.604857
7  55 1.899769  13.000468 525.879115
7  56 1.899769  3.765790 519.615817
7  57 1.899769  7.562543 510.160537
7  58 1.899769  18.484878 516.332179
7  59 1.899769  8.143840 524.291951
7  60 1.899769  7.243050 514.368762
7  61 1.899769  20.004950 516.783137
7  62 1.899769  17.127647 527.656023
7  63 1.899769  5.053498 530.048568
7  64 1.899769  -1.376701 515.170678
7  65 1.899769  10.736275 507.166011
7  66 1.899769  19.935531 518.034775
7  67 1.899769  15.605354 528.586686
7  68 1.899769  0.602341 526.799577
7  69 1.899769  2.108388 512.891940
7  70 1.899769  16.402553 508.625946
7  71 1.899769  21.313167 522.020910
7  72 1.899769  8.645340 530.910685
7  73 1.899769  -1.560236 520.280371
7  74 1.899769  5.193574 508.030336
7  75 1.899769  21.039212 512.236567
7  76 1.899769  18.128572 526.546290
7  77 1.899769  3.016429 529.760614
7  78 1.899769  -0.262223 514.349443
7  79 1.899769  9.983835 505.739386
7  80 1.899769  21.442925 516.737361
7  81 1.899769  15.896298 530.210588
7  82 1.899769  -0.376878 527.880242
7  83 1.899769  -0.921715 512.176009
7  84 1.899769  12.416975 507.520067
7  85 1.899769  32.019428 514.608727
7  86 1.899769  47.504634 518.861842
7  87 1.899769  64.765888 526.795879
7  88 1.899769  79.340868 531.945938
7  89 1.899769  94.019374 538.522846
7  90 1.899769  114.071784 544.900298
7  91 1.899769  130.814228 553.880570
7  92 1.899769  146.229091 559.455127
7  93 1.899769  160.567017 566.116072
7  94 1.899769  181.746841 572.553502
7  95 1.899769  197.503920 578.073019
7  96 1.899769  216.112515 583.374258
7  97 1.899769  232.026941 590.088466
7  98 1.899769  249.610404 596.058116
7  99 1.899769  267.611875 603.466400
7  100 1.899769  283.961025 609.610197
7  101 1.899769  301.955269 614.587004
7  102 1.899769  320.806342 619.898598
7  103 1.899769  336.854146 627.088406
7  104 1.899769  355.521616 636.529698
7  105 1.899769  374.236489 643.842989
8  1 1.899769  25.273530 128.558645
8  2 1.899769  25.310297 135.775042
8  3 1.899769  25.668418 145.887347
8  4 1.899769  26.625344 152.929275
8  5 1.899769  27.231294 160.461053
8  6 1.899769  28.199758 171.405849
8  7 1.899769  26.961727 179.847409
8  8 1.899769  31.519453 188.547205
8  9 1.899769  31.559326 199.205453
8  10 1.899769  32.223393 208.114803
8  11 1.899769  33.078206 218.273038
8  12 1.899769  34.476729 229.222547
8  13 1.899769  32.692070 237.972928
8  14 1.899769  33.954961 245.673016
8  15 1.899769  35.322346 254.084806
8  16 1.899769  35.204712 261.559481
8  17 1.899769  38.118364 271.738664
8  18 1.899769  37.724868 278.808908
8  19 1.899769  37.783064 287.408536
8  20 1.899769  40.135482 295.670609
8  21 1.899769  38.601537 304.276113
8  22 1.899769  39.417357 312.791612
8  23 1.899769  41.557376 321.529415
8  24 1.899769  40.791471 330.752632
8  25 1.899769  41.458559 339.624277
8  26 1.899769  41.662484 347.451666
8  27 1.899769  39.890716 357.522712
8  28 1.899769  38.712485 364.466212
8  29 1.899769  37.510424 373.560087
8  30 1.899769  40.471819 384.192481
8  31 1.899769  39.620276 392.411868
8  32 1.899769  37.471724 403.398653
8  33 1.899769  38.465402 413.607009
8  34 1.899769  36.616478 422.164515
8  35 1.899769  37.821308 433.402445
8  36 1.899769  35.405177 443.347807
8  37 1.899769  35.200236 451.635400
8  38 1.899769  36.178742 461.367544
8  39 1.899769  35.038010 471.824718
8  40 1.899769  36.501805 482.506128
8  41 1.899769  35.278377 494.400823
8  42 1.899769  35.067004 502.404633
8  43 1.899769  34.606949 509.982352
8  44 1.899769  26.764520 517.642966
8  45 1.899769  15.405345 520.326733
8  46 1.899769  5.273169 517.860016
8  47 1.899769  -1.314672 510.301327
8  48 1.899769  -7.478832 502.555695
8  49 1.899769  -10.770046 491.284540
8  50 1.899769  -18.273898 483.512330
8  51 1.899769  -26.463723 477.526620
8  52 1.899769  -34.500366 489.171564
8  53 1.899769  -27.093621 496.294529
8  54 1.899769  -19.048530 492.021916
8  55 1.899769  -18.854433 486.767310
8  56 1.899769  -28.585050 485.055677
8  57 1.899769  -32.770369 491.513425
8  58 1.899769  -23.572151 496.824938
8  59 1.899769  -22.858144 485.025114
8  60 1.899769  -31.032862 493.632244
8  61 1.899769  -22.424700 491.049477
8  62 1.899769  -30.364347 487.740900
8  63 1.899769  -29.825747 495.204830
8  64 1.899769  -22.024273 499.750184
8  65 1.899769  -26.012802 509.701317
8  66 1.899769  -36.038386 508.283475
8  67 1.899769  -35.054463 496.787183
8  68 1.899769  -26.393396 495.992223
8  69 1.899769  -21.878552 504.700186
8  70 1.899769  -30.127607 510.784452
8  71 1.899769  -36.360949 503.431763
8  72 1.899769  -32.486990 496.503823
8  73 1.899769  -24.204504 498.525627
8  74 1.899769  -25.005454 506.138619
8  75 1.899769  -32.800176 507.295057
8  76 1.899769  -35.192407 501.979420
8  77 1.899769  -31.941306 495.100824
8  78 1.899769  -23.176316 498.614035
8  79 1.899769  -27.299398 507.425139
8  80 1.899769  -33.158294 506.978922
8  81 1.899769  -36.289058 500.008825
8  82 1.899769  -27.251836 495.258523
8  83 1.899769  -24.864302 500.047719
8  84 1.899769  -29.195187 504.107638
8  85 1.899769  -36.899090 506.375122
8  86 1.899769  -42.141743 509.418259
8  87 1.899769  -50.841200 512.744100
8  88 1.899769  -57.349098 515.221125
8  89 1.899769  -60.805222 516.599632
8  90 1.899769  -68.610064 522.851646
8  91 1.899769  -74.526015 525.067322
8  92 1.899769  -80.472534 529.933966
8  93 1.899769  -86.640485 533.102361
8  94 1.899769  -92.737026 540.963881
8  95 1.899769  -97.801972 541.680243
8  96 1.899769  -102.112112 545.488288
8  97 1.899769  -107.105140 548.642166
8  98 1.899769  -113.546988 551.953026
8  99 1.899769  -120.832439 557.192913
8  100 1.899769  -126.149261 561.785186
8  101 1.899769  -137.174302 563.611118
8  102 1.899769  -141.868469 568.116635
8  103 1.899769  -147.500609 571.660444
8  104 1.899769  -156.114356 576.163117
8  105 1.899769  -160.868452 579.827890
9  1 1.899769  25.080712 128.499924
9  2 1.899769  24.402610 133.506616
9  3 1.899769  26.355130 140.687642
9  4 1.899769  26.492122 147.200821
9  5 1.899769  25.631476 155.280724
9  6 1.899769  25.857364 161.526218
9  7 1.899769  25.463370 167.355426
9  8 1.899769  27.581844 173.474140
9  9 1.899769  25.741002 179.873644
9  10 1.899769  27.992445 188.027189
9  11 1.899769  28.756797 193.802160
9  12 1.899769  29.602387 201.451162
9  13 1.899769  31.422328 208.877240
9  14 1.899769  33.161426 217.229199
9  15 1.899769  34.507682 224.147700
9  16 1.899769  36.052873 231.177873
9  17 1.899769  38.859531 239.175801
9  18 1.899769  39.735384 246.650367
9  19 1.899769  40.300761 254.006444
9  20 1.899769  42.655205 259.484821
9  21 1.899769  43.243306 267.207002
9  22 1.899769  44.816391 276.566060
9  23 1.899769  47.668836 285.063840
9  24 1.899769  43.311824 289.114572
9  25 1.899769  46.565422 296.390188
9  26 1.899769  45.054942 304.321614
9  27 1.899769  45.739310 312.295218
9  28 1.899769  47.871965 319.578143
9  29 1.899769  45.077889 325.883303
9  30 1.899769  46.019848 336.828073
9  31 1.899769  46.782406 344.071089
9  32 1.899769  48.554217 351.374086
9  33 1.899769  49.189248 361.394394
9  34 1.899769  47.781869 369.490464
9  35 1.899769  51.209654 378.950558
9  36 1.899769  52.591098 386.234001
9  37 1.899769  55.405158 393.876033
9  38 1.899769  54.631392 398.305877
9  39 1.899769  57.487179 407.011410
9  40 1.899769  57.011118 414.349163
9  41 1.899769  56.631554 420.113847
9  42 1.899769  55.775810 427.542611
9  43 1.899769  56.639259 434.318632
9  44 1.899769  51.420332 437.730103
9  45 1.899769  43.179020 441.187627
9  46 1.899769  36.424262 443.203639
9  47 1.899769  29.824266 436.791204
9  48 1.899769  27.498027 431.974714
9  49 1.899769  27.882020 424.977192
9  50 1.899769  32.432786 416.300329
9  51 1.899769  40.243297 415.132501
9  52 1.899769  46.137207 413.020305
9  53 1.899769  55.359471 414.747873
9  54 1.899769  63.538155 420.041142
9  55 1.899769  67.129883 425.892222
9  56 1.899769  65.725431 435.433137
9  57 1.899769  58.692505 439.337923
9  58 1.899769  49.598703 441.621413
9  59 1.899769  41.331345 444.082561
9  60 1.899769  34.320072 442.028877
9  61 1.899769  25.894858 437.458028
9  62 1.899769  23.180861 430.879572
9  63 1.899769  18.742484 424.757815
9  64 1.899769  24.897850 417.663179
9  65 1.899769  31.077348 421.907432
9  66 1.899769  29.168791 428.348998
9  67 1.899769  22.394128 432.087290
9  68 1.899769  19.602301 422.329401
9  69 1.899769  23.952693 418.372975
9  70 1.899769  31.035369 423.851378
9  71 1.899769  27.491580 431.465982
9  72 1.899769  19.976524 428.923493
9  73 1.899769  18.136671 417.877203
9  74 1.899769  26.606167 416.046645
9  75 1.899769  32.360562 423.184489
9  76 1.899769  24.893562 429.184076
9  77 1.899769  16.564201 425.848818
9  78 1.899769  18.819234 416.051143
9  79 1.899769  29.142458 416.377475
9  80 1.899769  32.752188 422.909049
9  81 1.899769  23.539681 431.112197
9  82 1.899769  17.567976 423.529768
9  83 1.899769  21.064296 417.571906
9  84 1.899769  30.654695 418.947232
9  85 1.899769  38.911221 429.939843
9  86 1.899769  42.300668 438.569913
9  87 1.899769  46.595990 445.787263
9  88 1.899769  52.867602 457.503640
9  89 1.899769  56.219507 468.454640
9  90 1.899769  62.182101 479.367634
9  91 1.899769  66.525493 490.417513
9  92 1.899769  72.003933 502.026836
9  93 1.899769  75.018135 513.010281
9  94 1.899769  82.171105 525.520518
9  95 1.899769  87.128904 534.315616
9  96 1.899769  94.042117 546.011968
9  97 1.899769  101.040500 558.371795
9  98 1.899769  103.542890 570.752810
9  99 1.899769  108.081616 583.637687
9  100 1.899769  114.246630 593.344164
9  101 1.899769  117.258989 604.421230
9  102 1.899769  120.786332 616.545188
9  103 1.899769  123.456317 628.288676
9  104 1.899769  127.817498 639.408271
9  105 1.899769  135.028004 648.428345
10  1 1.899769  24.097080 126.367667
10  2 1.899769  24.611249 134.670216
10  3 1.899769  24.668371 140.720841
10  4 1.899769  25.558852 150.778151
10  5 1.899769  23.593634 157.827455
10  6 1.899769  22.164520 167.278987
10  7 1.899769  22.288199 176.308930
10  8 1.899769  21.249679 183.346495
10  9 1.899769  22.682100 191.467347
10  10 1.899769  22.241992 198.538751
10  11 1.899769  21.248790 207.582509
10  12 1.899769  22.309932 213.163302
10  13 1.899769  20.350502 219.564773
10  14 1.899769  21.992665 227.521811
10  15 1.899769  18.750451 230.609995
10  16 1.899769  20.534716 239.803596
10  17 1.899769  22.380561 247.157410
10  18 1.899769  20.358928 249.014019
10  19 1.899769  22.601347 257.975090
10  20 1.899769  22.010690 261.975175
10  21 1.899769  20.223859 267.933505
10  22 1.899769  21.600045 275.120919
10  23 1.899769  19.145930 282.319464
10  24 1.899769  21.409005 289.687965
10  25 1.899769  20.501167 294.098318
10  26 1.899769  23.479334 300.683347
10  27 1.899769  21.882018 304.555625
10  28 1.899769  21.897895 311.969913
10  29 1.899769  22.931598 316.852242
10  30 1.899769  23.299500 321.251680
10  31 1.899769  22.189079 326.540798
10  32 1.899769  22.801368 332.582813
10  33 1.899769  22.425934 335.342014
10  34 1.899769  24.007774 339.496478
10  35 1.899769  23.220794 342.433722
10  36 1.899769  26.200016 348.878419
10  37 1.899769  24.565443 352.245627
10  38 1.899769  26.177411 354.281367
10  39 1.899769  26.056786 359.696638
10  40 1.899769  28.658228 364.605369
10  41 1.899769  31.986970 368.142860
10  42 1.899769  35.039861 369.619738
10  43 1.899769  33.992968 371.927844
10  44 1.899769  34.401572 377.108580
10  45 1.899769  34.350802 382.249324
10  46 1.899769  35.444743 385.616718
10  47 1.899769  41.017856 385.570399
10  48 1.899769  42.046906 381.466012
10  49 1.899769  37.079220 377.525391
10  50 1.899769  33.196154 378.831325
10  51 1.899769  34.454099 383.335750
10  52 1.899769  39.251610 383.851079
10  53 1.899769  40.608424 380.806720
10  54 1.899769  38.416705 378.820957
10  55 1.899769  38.584274 380.293144
10  56 1.899769  40.062957 381.916516
10  57 1.899769  40.970457 376.930679
10  58 1.899769  39.189259 378.475395
10  59 1.899769  38.506161 379.598585
10  60 1.899769  39.688426 382.490085
10  61 1.899769  40.078126 378.531468
10  62 1.899769  38.147403 379.209395
10  63 1.899769  39.058414 380.116299
10  64 1.899769  37.206941 380.870722
10  65 1.899769  35.108695 379.054893
10  66 1.899769  37.660810 377.166538
10  67 1.899769  38.702718 375.975271
10  68 1.899769  39.328371 378.645806
10  69 1.899769  36.531658 378.837146
10  70 1.899769  37.051412 378.229449
10  71 1.899769  38.669507 377.559898
10  72 1.899769  38.647693 378.511580
10  73 1.899769  37.041978 381.892376
10  74 1.899769  37.670818 378.712021
10  75 1.899769  36.328255 377.952879
10  76 1.899769  39.382255 377.055552
10  77 1.899769  38.241607 376.920440
10  78 1.899769  35.778322 379.869455
10  79 1.899769  37.110533 377.019758
10  80 1.899769  37.737202 380.450388
10  81 1.899769  39.211452 381.152638
10  82 1.899769  38.826347 380.453898
10  83 1.899769  36.930416 379.380874
10  84 1.899769  36.967632 375.700849
10  85 1.899769  38.734208 374.691249
10  86 1.899769  42.834323 372.920469
10  87 1.899769  43.290171 369.269618
10  88 1.899769  44.913413 372.114844
10  89 1.899769  46.784936 369.645160
10  90 1.899769  47.633438 366.331611
10  91 1.899769  48.712796 364.946629
10  92 1.899769  48.440713 363.615252
10  93 1.899769  51.181761 357.491634
10  94 1.899769  50.775098 357.355050
10  95 1.899769  52.997481 356.248416
10  96 1.899769  55.427845 353.307204
10  97 1.899769  58.244686 352.580179
10  98 1.899769  59.612228 350.103149
10  99 1.899769  60.917143 347.473978
10  100 1.899769  64.052760 343.611587
10  101 1.899769  65.413022 343.044636
10  102 1.899769  69.588285 341.445738
10  103 1.899769  72.512377 339.176527
10  104 1.899769  76.644103 336.457838
10  105 1.899769  78.389934 335.917820
