nmc=10
nx=6
kmax=20
run number  , frame , sample interval , truth:
1  1 1.661443  97.894025 15.435383 1.073454 163.769585 69.622590 29.919054
1  2 1.661443  125.167582 17.395793 1.179945 320.608616 119.176027 29.825549
1  3 1.661443  155.679015 19.333052 1.166010 559.586578 168.499233 29.686976
1  4 1.661443  189.502918 21.383255 1.233990 880.395618 217.682082 29.602497
1  5 1.661443  226.686846 23.377760 1.200466 1282.892873 266.833315 29.583468
1  6 1.661443  267.322276 25.538081 1.300268 1767.183906 316.143238 29.678981
1  7 1.661443  311.343067 27.452966 1.152544 2333.372002 365.418803 29.658301
1  8 1.661443  358.494865 29.307104 1.115981 2981.160257 414.371320 29.463864
1  9 1.661443  408.709538 31.139972 1.103179 3710.121856 463.133096 29.349058
1  10 1.661443  462.160000 33.202261 1.241264 4520.215390 512.035767 29.433862
1  11 1.661443  519.545146 35.876437 1.609551 5411.511514 560.882595 29.400251
1  12 1.661443  581.300402 38.462883 1.556747 6383.939803 609.700491 29.382837
1  13 1.661443  647.449434 41.165547 1.626697 7437.604281 658.672539 29.475619
1  14 1.661443  717.996330 43.756913 1.559709 8572.588059 707.590482 29.443053
1  15 1.661443  792.941647 46.460248 1.627101 9788.760325 756.405065 29.380843
1  16 1.661443  872.463569 49.266109 1.688810 11086.271770 805.504403 29.552233
1  17 1.661443  956.551038 51.956131 1.619088 12465.306979 854.541184 29.514581
1  18 1.661443  1045.046394 54.572205 1.574580 13925.950332 903.742099 29.613371
1  19 1.661443  1137.857994 57.151910 1.552690 15468.258255 952.846802 29.555462
1  20 1.661443  1234.948761 59.723352 1.547716 17092.057268 1001.838886 29.487678
2  1 1.284409  92.249586 15.184697 1.193387 139.755129 58.511913 30.051273
2  2 1.284409  112.686231 16.637957 1.131462 239.626833 97.002001 29.967168
2  3 1.284409  134.978344 18.073915 1.117992 389.011201 135.609909 30.058899
2  4 1.284409  159.181889 19.614319 1.199310 587.844443 174.000669 29.889834
2  5 1.284409  185.415009 21.234240 1.261220 835.922840 212.291354 29.811919
2  6 1.284409  213.908466 23.133972 1.479072 1133.203273 250.614977 29.837564
2  7 1.284409  244.944062 25.192699 1.602860 1479.719861 288.958786 29.853280
2  8 1.284409  278.646287 27.286279 1.629995 1875.471654 327.280931 29.836412
2  9 1.284409  315.095861 29.470697 1.700719 2320.425950 365.573819 29.813635
2  10 1.284409  354.374069 31.690849 1.728540 2814.450561 403.690128 29.676156
2  11 1.284409  396.512286 33.924124 1.738758 3357.497464 441.908238 29.755414
2  12 1.284409  441.475480 36.089725 1.686069 3949.602779 480.080793 29.719947
2  13 1.284409  489.155569 38.154700 1.607724 4590.778070 518.316907 29.769432
2  14 1.284409  539.368621 40.033897 1.463084 5281.157628 556.698573 29.882754
2  15 1.284409  592.066105 42.023300 1.548886 6020.853925 595.109819 29.905784
2  16 1.284409  647.273402 43.942019 1.493854 6809.965201 633.644461 30.001856
2  17 1.284409  704.962173 45.887294 1.514530 7648.526450 672.110198 29.948209
2  18 1.284409  764.889376 47.427565 1.199206 8536.445834 710.501832 29.890515
2  19 1.284409  826.884805 49.107805 1.308182 9473.671551 748.886908 29.885409
2  20 1.284409  890.930217 50.619668 1.177089 10460.106921 787.127998 29.773306
3  1 1.469224  95.075760 15.404467 1.192852 150.975782 63.920890 29.952602
3  2 1.469224  118.965995 17.116415 1.165206 277.261282 107.986833 29.992658
3  3 1.469224  145.435049 18.914916 1.224116 468.307236 152.076871 30.009059
3  4 1.469224  174.431672 20.557102 1.117723 724.297499 196.393088 30.163003
3  5 1.469224  205.883972 22.257736 1.157504 1045.441310 240.767956 30.202923
3  6 1.469224  239.813776 23.929636 1.137948 1431.641953 284.952516 30.073394
3  7 1.469224  276.137054 25.515883 1.079650 1882.622455 328.950353 29.946304
3  8 1.469224  314.716316 27.000621 1.010559 2398.335609 373.070651 30.029654
3  9 1.469224  355.415918 28.402224 0.953975 2978.859842 417.175248 30.018968
3  10 1.469224  398.123635 29.734192 0.906579 3624.219520 461.328715 30.052231
3  11 1.469224  442.787413 31.064936 0.905747 4334.416164 505.435380 30.020376
3  12 1.469224  489.324464 32.284210 0.829875 5109.337404 549.435885 29.948120
3  13 1.469224  537.601999 33.434190 0.782713 5948.851949 593.363827 29.898731
3  14 1.469224  587.421830 34.383680 0.646252 6852.837436 637.197764 29.834748
3  15 1.469224  638.641356 35.339542 0.650590 7821.385186 681.250019 29.983342
3  16 1.469224  691.202677 36.210216 0.592608 8854.724478 725.396064 30.047179
3  17 1.469224  744.921218 36.914824 0.479578 9953.036165 769.694506 30.150906
3  18 1.469224  799.625314 37.551813 0.433555 11116.466450 814.039573 30.182639
3  19 1.469224  855.359505 38.317054 0.520847 12345.072302 858.415564 30.203688
3  20 1.469224  912.114007 38.940724 0.424489 13638.761061 902.634498 30.096789
4  1 1.064781  89.069269 15.159032 1.415439 127.541205 51.746759 29.896247
4  2 1.064781  106.025172 16.689586 1.437435 199.565402 83.537751 29.856833
4  3 1.064781  124.693394 18.375314 1.583169 305.427122 115.304467 29.834034
4  4 1.064781  145.118463 19.989507 1.515985 445.107262 147.059577 29.823134
4  5 1.064781  167.377309 21.819737 1.718879 618.656483 178.921447 29.923399
4  6 1.064781  191.631192 23.736824 1.800452 826.101511 210.726761 29.870283
4  7 1.064781  217.906908 25.617387 1.766150 1067.312545 242.344822 29.694423
4  8 1.064781  246.128936 27.392622 1.667230 1342.214857 274.009770 29.738457
4  9 1.064781  276.177566 29.048329 1.554974 1650.760001 305.536839 29.608967
4  10 1.064781  308.011068 30.745185 1.593620 1992.890375 337.093587 29.636840
4  11 1.064781  341.565173 32.280172 1.441599 2368.641900 368.688131 29.672336
4  12 1.064781  376.693240 33.701588 1.334937 2777.939222 400.103339 29.503912
4  13 1.064781  413.268204 34.997909 1.217453 3220.707631 431.557552 29.540543
4  14 1.064781  451.223501 36.294296 1.217515 3696.931048 462.942562 29.475551
4  15 1.064781  490.607967 37.682346 1.303601 4206.541489 494.269075 29.420613
4  16 1.064781  531.420014 38.975752 1.214715 4749.453450 525.493483 29.324720
4  17 1.064781  573.590934 40.234742 1.182394 5325.741578 556.960208 29.552295
4  18 1.064781  617.114499 41.516453 1.203732 5935.645454 588.634623 29.747348
4  19 1.064781  661.983708 42.762294 1.170044 6579.302877 620.360181 29.795380
4  20 1.064781  708.227238 44.097867 1.254317 7256.673402 651.958627 29.676001
5  1 1.988335  103.008046 15.797309 1.078998 187.821421 79.095295 29.764349
5  2 1.988335  136.512295 17.903501 1.059274 404.094228 138.446330 29.849616
5  3 1.988335  174.144827 19.949811 1.029158 738.648745 198.070935 29.987204
5  4 1.988335  215.981309 22.132114 1.097553 1191.871666 257.810930 30.045237
5  5 1.988335  262.146409 24.303825 1.092226 1763.772292 317.444894 29.991911
5  6 1.988335  312.974864 26.822828 1.266891 2454.371343 377.205729 30.055718
5  7 1.988335  368.696620 29.225834 1.208552 3263.834359 437.006203 30.075655
5  8 1.988335  429.190475 31.622924 1.205577 4192.531641 497.139512 30.243048
5  9 1.988335  494.467903 34.037470 1.214355 5240.782896 557.261571 30.237390
5  10 1.988335  564.343170 36.247738 1.111618 6408.876910 617.685356 30.389138
5  11 1.988335  638.841157 38.687310 1.226942 7696.613673 677.606235 30.136210
5  12 1.988335  718.248656 41.186052 1.256701 9103.364639 737.397786 30.071167
5  13 1.988335  802.475499 43.534928 1.181328 10628.818313 797.005341 29.978628
5  14 1.988335  891.368331 45.879417 1.179122 12272.936081 856.758053 30.051633
5  15 1.988335  985.223412 48.526288 1.331200 14035.666841 916.314206 29.952777
5  16 1.988335  1084.540232 51.373199 1.431806 15917.042525 976.099037 30.067787
5  17 1.988335  1189.503449 54.205811 1.424615 17917.391198 1035.985180 30.118740
5  18 1.988335  1300.081679 57.021153 1.415929 20036.700821 1095.757900 30.061696
5  19 1.988335  1416.380093 59.959555 1.477820 22274.613002 1155.283549 29.937436
5  20 1.988335  1538.305440 62.681097 1.368754 24630.930982 1214.858356 29.962158
6  1 1.582792  97.044609 15.807453 1.361868 158.311256 67.174673 29.859187
6  2 1.582792  123.882665 18.104850 1.451484 302.077161 114.486510 29.891386
6  3 1.582792  154.458183 20.530074 1.532245 520.859934 161.965250 29.996835
6  4 1.582792  188.950576 23.054175 1.594715 814.918000 209.603631 30.097694
6  5 1.582792  227.251804 25.342879 1.445992 1184.246049 257.075659 29.992594
6  6 1.582792  269.336561 27.835006 1.574514 1628.786937 304.641833 30.052075
6  7 1.582792  315.063731 29.945396 1.333334 2148.655419 352.258868 30.084208
6  8 1.582792  364.144699 32.072833 1.344104 2743.941437 399.938688 30.123876
6  9 1.582792  416.650368 34.272814 1.389937 3414.935644 447.922993 30.316247
6  10 1.582792  472.763001 36.630557 1.489611 4161.897489 495.930647 30.331000
6  11 1.582792  532.409759 38.738499 1.331787 4984.781906 543.858008 30.280271
6  12 1.582792  595.385034 40.836439 1.325468 5883.840381 592.183438 30.531769
6  13 1.582792  661.727120 42.992769 1.362359 6859.365498 640.480504 30.513849
6  14 1.582792  731.706303 45.432237 1.541244 7911.272580 688.698937 30.464169
6  15 1.582792  805.609494 47.951108 1.591410 9039.568884 737.005174 30.519643
6  16 1.582792  883.438098 50.392351 1.542365 10244.091420 785.017654 30.334049
6  17 1.582792  964.980867 52.644290 1.422765 11524.526436 832.927438 30.269166
6  18 1.582792  1050.076344 54.881517 1.413469 12880.868296 880.932795 30.329548
6  19 1.582792  1138.691530 57.091761 1.396422 14313.264358 929.028780 30.386807
6  20 1.582792  1230.832322 59.336437 1.418175 15821.688597 977.001251 30.308771
7  1 1.423496  94.198968 15.105981 1.021486 148.031595 62.477418 29.900758
7  2 1.423496  116.648744 16.435760 0.934164 267.503426 105.379478 30.138513
7  3 1.423496  140.923915 17.670646 0.867502 448.044868 148.279694 30.137217
7  4 1.423496  167.134844 19.155484 1.043092 689.650068 191.173535 30.132738
7  5 1.423496  195.569559 20.795047 1.151786 992.394118 234.179252 30.211332
7  6 1.423496  226.537068 22.714037 1.348083 1356.443927 277.307598 30.297478
7  7 1.423496  260.380104 24.835137 1.490064 1782.119051 320.762290 30.526734
7  8 1.423496  297.230210 26.938944 1.477915 2269.680200 364.256932 30.554799
7  9 1.423496  337.214150 29.238148 1.615181 2819.104041 407.678839 30.503703
7  10 1.423496  380.264484 31.247202 1.411352 3430.176761 450.873078 30.343767
7  11 1.423496  426.266004 33.384538 1.501469 4102.626309 493.912755 30.235188
7  12 1.423496  475.411412 35.664338 1.601550 4836.239393 536.807320 30.133247
7  13 1.423496  527.809263 37.954193 1.608614 5630.762557 579.490893 29.985026
7  14 1.423496  583.552014 40.363893 1.692804 6485.989682 622.095864 29.929809
7  15 1.423496  642.654233 42.674216 1.622992 7401.778024 664.578882 29.844137
7  16 1.423496  705.015925 44.943425 1.594110 8378.141384 707.203243 29.943431
7  17 1.423496  770.599965 47.201587 1.586349 9415.045592 749.638252 29.810412
7  18 1.423496  839.475797 49.568365 1.662652 10512.390897 792.122464 29.844976
7  19 1.423496  911.763154 51.994750 1.704525 11670.108656 834.461033 29.742662
7  20 1.423496  987.505185 54.422153 1.705240 12888.060346 876.750618 29.708251
8  1 1.515512  95.899504 15.604097 1.288144 153.752774 65.025131 29.766401
8  2 1.515512  120.929556 17.427719 1.203304 286.250825 109.830723 29.564661
8  3 1.515512  148.542489 19.012689 1.045831 486.528865 154.473451 29.457197
8  4 1.515512  178.546827 20.583624 1.036571 754.549684 199.229935 29.532258
8  5 1.515512  210.948175 22.175988 1.050711 1090.426569 244.022166 29.555845
8  6 1.515512  245.860654 23.897530 1.135947 1494.351957 289.032610 29.699831
8  7 1.515512  283.330693 25.551166 1.091140 1966.546742 334.116348 29.748194
8  8 1.515512  323.295878 27.190339 1.081597 2507.058725 379.189878 29.741459
8  9 1.515512  365.856733 28.976635 1.178675 3115.963529 424.373411 29.814043
8  10 1.515512  411.025481 30.631940 1.092242 3793.305550 469.505530 29.780118
8  11 1.515512  458.685773 32.264691 1.077359 4539.123114 514.739643 29.847418
8  12 1.515512  509.022224 34.163631 1.253003 5353.343597 559.775922 29.716878
8  13 1.515512  562.297785 36.143394 1.306333 6235.756195 604.731838 29.663852
8  14 1.515512  618.593672 38.149514 1.323724 7186.274957 649.654690 29.642035
8  15 1.515512  677.805642 39.991707 1.215559 8204.914244 694.629556 29.676356
8  16 1.515512  739.778352 41.792825 1.188455 9291.756623 739.661372 29.713934
8  17 1.515512  804.336748 43.404002 1.063124 10446.915306 784.785642 29.774939
8  18 1.515512  871.267797 44.923982 1.002948 11670.345652 829.758546 29.675061
8  19 1.515512  940.491323 46.429352 0.993308 12961.735753 874.471196 29.503335
8  20 1.515512  1011.877763 47.778350 0.890127 14321.071748 919.425807 29.662991
9  1 1.333951  92.993629 15.229253 1.182467 142.524132 59.750765 29.863878
9  2 1.333951  114.370797 16.821641 1.193737 248.789071 99.572780 29.852671
9  3 1.333951  137.964119 18.551943 1.297125 408.252461 139.511463 29.940132
9  4 1.333951  163.719512 20.063243 1.132950 620.894000 179.303039 29.829853
9  5 1.333951  191.572755 21.697260 1.224945 886.537680 218.977835 29.742308
9  6 1.333951  221.681527 23.444970 1.310175 1205.290259 258.929470 29.949841
9  7 1.333951  254.211269 25.327031 1.410892 1577.276937 298.791982 29.883030
9  8 1.333951  289.130287 27.027224 1.274554 2002.586476 338.876697 30.049605
9  9 1.333951  326.279047 28.670095 1.231582 2481.398537 379.008575 30.084961
9  10 1.333951  365.479362 30.103130 1.074278 3013.625358 418.961710 29.950965
9  11 1.333951  406.687978 31.681151 1.182968 3599.186627 458.973174 29.994693
9  12 1.333951  450.000229 33.257119 1.181428 4238.125017 498.990289 29.998928
9  13 1.333951  495.408615 34.823896 1.174538 4930.470856 539.047226 30.028781
9  14 1.333951  542.980288 36.500548 1.256906 5676.178650 578.996129 29.947793
9  15 1.333951  592.927833 38.386052 1.413473 6475.223078 619.015103 30.000322
9  16 1.333951  645.338776 40.193932 1.355282 7327.671778 659.065416 30.023816
9  17 1.333951  699.993498 41.750160 1.166630 8233.413175 698.917104 29.874915
9  18 1.333951  756.928181 43.612290 1.395950 9192.301873 738.749427 29.860399
9  19 1.333951  816.457590 45.640445 1.520411 10204.369098 778.647929 29.910010
9  20 1.333951  878.909065 47.993359 1.763868 11269.689857 818.592713 29.944705
10  1 1.432907  94.489197 15.322210 1.165680 148.562839 62.677820 29.844248
10  2 1.432907  117.759829 17.158109 1.281241 268.912285 105.301651 29.746413
10  3 1.432907  143.778032 19.157172 1.395111 450.416973 148.036129 29.823631
10  4 1.432907  172.546600 20.996971 1.283963 693.161401 190.777899 29.828720
10  5 1.432907  203.926041 22.801335 1.259234 997.156980 233.528306 29.834748
10  6 1.432907  237.960364 24.702560 1.326831 1362.327132 276.163188 29.754125
10  7 1.432907  274.626360 26.474531 1.236627 1788.590839 318.800515 29.755832
10  8 1.432907  313.863106 28.290722 1.267487 2275.983634 361.484991 29.788736
10  9 1.432907  355.700075 30.103830 1.265336 2824.574018 404.217931 29.822558
10  10 1.432907  400.150944 31.939111 1.280810 3434.614470 447.254808 30.034670
10  11 1.432907  447.356032 33.948069 1.402016 4106.154104 490.056299 29.870399
10  12 1.432907  497.376540 35.868776 1.340427 4839.111680 532.979784 29.955535
10  13 1.432907  550.122195 37.751731 1.314081 5633.571543 575.899002 29.952558
10  14 1.432907  605.669496 39.779213 1.414944 6489.654501 618.991106 30.073212
10  15 1.432907  664.265241 42.006642 1.554483 7407.494449 662.097208 30.082981
10  16 1.432907  725.880775 43.994125 1.387029 8387.183144 705.317386 30.162593
10  17 1.432907  790.466010 46.151647 1.505696 9428.570066 748.213394 29.936360
10  18 1.432907  858.251586 48.461047 1.611689 10531.409688 791.090878 29.923433
10  19 1.432907  929.435952 50.895557 1.699001 11695.751824 834.056412 29.984881
10  20 1.432907  1004.075287 53.283369 1.666412 12921.521615 876.829412 29.850515
